File: Python/Data/GoldElectrode/240322/Gold/240322-CVEIS-Activation-5mM_Fe2Fe3-1M_H2SO4-0000RPM-Ag_AgCl_BLF8-Au_RDE_04_PEIS_C15.mpt
EC-Lab ASCII FILE
Nb header lines : 66

Potentio Electrochemical Impedance Spectroscopy

Run on channel : 15 (SN 19485)
User :
Electrode connection : standard
Potential control : Ewe
Ewe ctrl range : min = -2.50 V, max = 2.50 V
Ewe,I filtering : 50 kHz
Safety Limits :
	Do not start on E overload
Channel : Floating
Acquisition started on : 03/22/2024 10:02:07.151
Loaded Setting File :  C:\Data\mathias\GoldElectrode\240321-CVEIS-Activation-5mM_Fe2Fe3-1M_H2SO4-0000RPM-Ag_AgCl_BLF8-Au_RDE.mps
Saved on :
	File : 240322-CVEIS-Activation-5mM_Fe2Fe3-1M_H2SO4-0000RPM-Ag_AgCl_BLF8-Au_RDE_04_PEIS_C15.mpr
	Directory : C:\Data\mathias\GoldElectrode\
	Host : 192.168.0.1
Device : VMP-300 (SN 0826)
Address : USB
EC-Lab for windows v11.52 (software)
Internet server v11.52 (firmware)
Command interpretor v11.52 (firmware)
Electrode material :
Initial state :
Electrolyte :
Comments :
Cable : special
Electrode surface area : 0.001 cm²
Characteristic mass : 0.001 g
Equivalent Weight : 0.000 g/eq.
Density : 0.000 g/cm3
Volume (V) : 0.001 cm³
Record EIS quality indicators
Cycle Definition : Charge/Discharge alternance
Mode                Single sine
E (V)               0.0000
vs.                 Eoc
tE (h:m:s)          0:00:0.0000
record              0
dI                  0.000
unit dI             mA
dt (s)              0.000
fi                  100.000
unit fi             kHz
ff                  100.000
unit ff             Hz
Nd                  10
Points              per decade
spacing             Logarithmic
Va (mV)             5.0
pw                  0.10
Na                  2
corr                0
E range min (V)     -2.500
E range max (V)     2.500
I Range             Auto
Bandwidth           8
nc cycles           0
goto Ns'            0
nr cycles           0
inc. cycle          0

freq/Hz	Re(Z)/Ohm	-Im(Z)/Ohm	|Z|/Ohm	Phase(Z)/deg	time/s	<Ewe>/V	<I>/mA	Cs/µF	Cp/µF	cycle number	I Range	|Ewe|/V	|I|/A	Ns	(Q-Qo)/mA.h	THD Ewe/%	NSD Ewe/%	NSR Ewe/%	|Ewe h2|/V	|Ewe h3|/V	|Ewe h4|/V	|Ewe h5|/V	|Ewe h6|/V	|Ewe h7|/V	THD I/%	NSD I/%	NSR I/%	|I h2|/A	|I h3|/A	|I h4|/A	|I h5|/A	|I h6|/A	|I h7|/A	Re(Y)/Ohm-1	Im(Y)/Ohm-1	|Y|/Ohm-1	Phase(Y)/deg	Re(C)/nF	Im(C)/nF	|C|/nF	Phase(C)/deg	Re(M)	Im(M)	|M|	Phase(M)/deg	Re(Permittivity)	Im(Permittivity)	|Permittivity|	Phase(Permittivity)/deg	Re(Resistivity)/Ohm.cm	Im(Resistivity)/Ohm.cm	|Resistivity|/Ohm.cm	Phase(Resistivity)/deg	Re(Conductivity)/mS/cm	Im(Conductivity)/mS/cm	|Conductivity|/mS/cm	Phase(Conductivity)/deg	Tan(Delta)	Loss Angle(Delta)/deg	dq/mA.h
100004	2.75297	0.159573	2.75759	-3.31739	389.5	0.441884	-0.0467546	9.97341	0.0333969	1	37	0.00483294	0.0017526	0	2.14215e-05	1.30619	0.523316	28.0532	1.89056e-05	1.27646e-05	2.90589e-05	2.90765e-05	3.46615e-05	1.94712e-05	0.707467	0.280038	9.81887	4.61865e-06	6.05228e-06	7.02117e-06	3.38944e-06	4.41217e-06	2.42954e-06	0.362028	0.0209847	0.362636	3.31739	33.3969	576.165	577.132	-86.6826	0.0000000E+000	0.0000000E+000	0.0000000E+000	86.6826	0.0000000E+000	0.0000000E+000	0.0000000E+000	-86.6826	0.0000000E+000	0.0000000E+000	0.0000000E+000	-3.31739	0.0000000E+000	0.0000000E+000	0.0000000E+000	3.31739	17.252	86.6826	2.14215e-05
63093.8	2.75504	0.243403	2.76577	-5.04888	391.13	0.441892	-0.0641933	10.3635	0.0802653	1	37	0.00518388	0.0018743	0	-7.82248e-06	2.0454	0.638583	25.1707	9.56789e-05	1.14708e-05	1.55178e-05	2.16268e-05	2.5094e-05	2.36147e-05	0.673446	0.31246	9.27882	6.72221e-06	6.34317e-06	1.9788e-06	4.10015e-06	5.21407e-06	3.82324e-06	0.36016	0.0318196	0.361563	5.04888	80.2653	908.508	912.047	-84.9511	0.0000000E+000	0.0000000E+000	0.0000000E+000	84.9511	0.0000000E+000	0.0000000E+000	0.0000000E+000	-84.9511	0.0000000E+000	0.0000000E+000	0.0000000E+000	-5.04888	0.0000000E+000	0.0000000E+000	0.0000000E+000	5.04888	11.3188	84.9511	-1.57408e-05
39814.1	2.7734	0.394151	2.80126	-8.08862	392.76	0.441905	-0.0686228	10.142	0.200788	1	37	0.00516332	0.00184321	0	-3.27452e-05	1.27532	1.00227	25.5737	3.58697e-05	2.3036e-05	1.09684e-05	1.46915e-05	1.38593e-05	2.92741e-05	0.523602	0.361704	9.507	3.0104e-06	4.79099e-06	2.70369e-06	2.63455e-06	5.72674e-06	2.07979e-06	0.35343	0.0502289	0.356982	8.08862	200.788	1412.82	1427.02	-81.9114	0.0000000E+000	0.0000000E+000	0.0000000E+000	81.9114	0.0000000E+000	0.0000000E+000	0.0000000E+000	-81.9114	0.0000000E+000	0.0000000E+000	0.0000000E+000	-8.08862	0.0000000E+000	0.0000000E+000	0.0000000E+000	8.08862	7.03639	81.9114	-1.26506e-05
25116.9	2.81427	0.555505	2.86858	-11.166	394.39	0.441894	-0.0661103	11.4069	0.427769	1	37	0.00517829	0.00180518	0	-6.57583e-05	1.07375	1.12243	25.7368	3.17794e-05	1.32346e-05	1.39178e-05	1.48867e-05	2.53471e-05	2.22828e-05	0.768692	0.471863	9.6565	5.68761e-06	5.96117e-06	4.67378e-06	4.43471e-06	6.22002e-06	6.11469e-06	0.342006	0.067508	0.348605	11.166	427.769	2167.14	2208.96	-78.834	0.0000000E+000	0.0000000E+000	0.0000000E+000	78.834	0.0000000E+000	0.0000000E+000	0.0000000E+000	-78.834	0.0000000E+000	0.0000000E+000	0.0000000E+000	-11.166	0.0000000E+000	0.0000000E+000	0.0000000E+000	11.166	5.06615	78.834	-1.57404e-05
15847.7	2.8902	0.823809	3.00531	-15.9094	396.02	0.441881	-0.0658498	12.1907	0.916012	1	37	0.00507027	0.0016871	0	-9.60648e-05	1.52774	0.43659	26.4596	8.04339e-06	6.0523e-06	5.21348e-05	1.30545e-05	3.0634e-05	4.39356e-05	0.582895	0.182739	10.4327	4.4789e-06	3.33438e-06	4.9696e-06	3.30827e-06	3.27029e-06	1.71176e-06	0.319999	0.0912109	0.332744	15.9094	916.012	3213.68	3341.68	-74.0906	0.0000000E+000	0.0000000E+000	0.0000000E+000	74.0906	0.0000000E+000	0.0000000E+000	0.0000000E+000	-74.0906	0.0000000E+000	0.0000000E+000	0.0000000E+000	-15.9094	0.0000000E+000	0.0000000E+000	0.0000000E+000	15.9094	3.50834	74.0906	-1.45529e-05
10002.2	3.02607	1.19847	3.25476	-21.606	397.651	0.441878	-0.0674503	13.2768	1.80018	1	37	0.00512988	0.00157612	0	-0.000127717	1.14319	0.71065	25.8575	1.8692e-05	1.9688e-05	1.98415e-05	3.07278e-05	2.81954e-05	1.24419e-05	0.562312	0.385852	11.3472	3.10856e-06	3.56321e-06	1.34755e-06	3.93065e-06	3.21972e-06	4.55698e-06	0.285655	0.113134	0.307243	21.606	1800.18	4545.33	4888.83	-68.394	0.0000000E+000	0.0000000E+000	0.0000000E+000	68.394	0.0000000E+000	0.0000000E+000	0.0000000E+000	-68.394	0.0000000E+000	0.0000000E+000	0.0000000E+000	-21.606	0.0000000E+000	0.0000000E+000	0.0000000E+000	21.606	2.52493	68.394	-1.58402e-05
6307.74	3.20718	1.78087	3.66845	-29.0424	399.404	0.441734	-0.0606944	14.1682	3.33899	1	37	0.0050365	0.00137293	0	-0.00016121	1.21771	0.926142	26.2692	1.81182e-05	2.77689e-05	2.01312e-05	3.19358e-05	2.20743e-05	2.42945e-05	0.678226	0.302471	13.0218	3.53644e-06	3.70458e-06	2.78277e-06	4.81973e-06	4.50328e-06	1.09356e-06	0.238319	0.132333	0.272595	29.0424	3338.99	6013.19	6878.03	-60.9576	0.0000000E+000	0.0000000E+000	0.0000000E+000	60.9576	0.0000000E+000	0.0000000E+000	0.0000000E+000	-60.9576	0.0000000E+000	0.0000000E+000	0.0000000E+000	-29.0424	0.0000000E+000	0.0000000E+000	0.0000000E+000	29.0424	1.8009	60.9576	-1.76848e-05
3981.28	3.57244	2.6549	4.45093	-36.6183	401.38	0.44177	-0.00183615	15.0574	5.35727	1	38	0.00503897	0.00113212	0	-0.000163696	1.70101	0.624687	25.5497	2.4853e-05	3.70702e-05	1.68955e-05	6.02283e-05	2.21123e-05	1.91975e-05	0.146479	0.124732	2.60048	9.93803e-07	6.05067e-07	3.02569e-07	7.92169e-07	4.6464e-07	5.31047e-07	0.180328	0.134013	0.224672	36.6183	5357.27	7208.76	8981.46	-53.3817	0.0000000E+000	0.0000000E+000	0.0000000E+000	53.3817	0.0000000E+000	0.0000000E+000	0.0000000E+000	-53.3817	0.0000000E+000	0.0000000E+000	0.0000000E+000	-36.6183	0.0000000E+000	0.0000000E+000	0.0000000E+000	36.6183	1.3456	53.3817	1.19826e-06
2512.41	4.27181	3.83275	5.7392	-41.8991	402.866	0.441776	-0.00357148	16.5279	7.3712	1	38	0.0051357	0.000894846	0	-0.000165413	1.26806	1.08482	25.1868	1.45972e-05	1.92987e-05	3.25031e-05	3.36424e-05	1.97616e-05	2.75611e-05	0.191192	0.123955	3.35533	8.72466e-07	3.606e-07	3.01279e-07	1.08092e-06	6.26856e-07	1.19835e-07	0.129691	0.116361	0.17424	41.8991	7371.2	8215.6	11037.7	-48.1009	0.0000000E+000	0.0000000E+000	0.0000000E+000	48.1009	0.0000000E+000	0.0000000E+000	0.0000000E+000	-48.1009	0.0000000E+000	0.0000000E+000	0.0000000E+000	-41.8991	0.0000000E+000	0.0000000E+000	0.0000000E+000	41.8991	1.11455	48.1009	-1.2408e-06
1584.49	5.49555	5.29422	7.63084	-43.931	404.353	0.441749	-0.00342811	18.9727	9.13243	1	38	0.0049125	0.000643769	0	-0.000167531	1.43019	0.897613	26.5784	1.50995e-05	3.53788e-05	3.2008e-05	2.32982e-05	1.94478e-05	3.15581e-05	0.305141	0.126254	4.58237	9.43329e-07	1.13576e-06	5.31776e-07	5.87112e-07	7.1834e-07	3.76998e-07	0.094377	0.0909194	0.131047	43.931	9132.43	9479.73	13163.1	-46.069	0.0000000E+000	0.0000000E+000	0.0000000E+000	46.069	0.0000000E+000	0.0000000E+000	0.0000000E+000	-46.069	0.0000000E+000	0.0000000E+000	0.0000000E+000	-43.931	0.0000000E+000	0.0000000E+000	0.0000000E+000	43.931	1.03803	46.069	-1.39972e-06
999.682	7.40511	6.78784	10.0454	-42.5097	405.839	0.441764	-0.00433116	23.4545	10.7091	1	38	0.0047412	0.000471976	0	-0.000169433	1.13053	0.806371	26.6806	1.58702e-05	1.56539e-05	1.06513e-05	1.87295e-05	2.291e-05	2.80995e-05	0.501401	0.149632	6.31286	9.72859e-07	1.71963e-06	2.98961e-07	8.91144e-07	2.72534e-07	8.05299e-07	0.073383	0.067266	0.0995479	42.5097	10709.1	11683	15848.6	-47.4903	0.0000000E+000	0.0000000E+000	0.0000000E+000	47.4903	0.0000000E+000	0.0000000E+000	0.0000000E+000	-47.4903	0.0000000E+000	0.0000000E+000	0.0000000E+000	-42.5097	0.0000000E+000	0.0000000E+000	0.0000000E+000	42.5097	1.09094	47.4903	-7.14751e-07
631.01	10.0581	7.89047	12.7838	-38.1138	407.324	0.441771	-0.0035808	31.9655	12.1778	1	38	0.00465902	0.000364448	0	-0.000170778	1.66254	0.711221	27.5684	1.87595e-05	4.86586e-05	2.84527e-05	3.1669e-05	9.59409e-06	1.75288e-05	0.764216	0.175605	8.35207	1.41512e-06	1.80442e-06	5.10528e-07	1.08815e-06	4.40892e-07	7.12067e-07	0.0615457	0.0482819	0.0782241	38.1138	12177.8	15523.2	19729.9	-51.8862	0.0000000E+000	0.0000000E+000	0.0000000E+000	51.8862	0.0000000E+000	0.0000000E+000	0.0000000E+000	-51.8862	0.0000000E+000	0.0000000E+000	0.0000000E+000	-38.1138	0.0000000E+000	0.0000000E+000	0.0000000E+000	38.1138	1.27472	51.8862	-3.16094e-07
398.089	13.029	8.50628	15.56	-33.1394	408.813	0.441757	-0.00212477	47.0002	14.0463	1	38	0.00461694	0.000296719	0	-0.00017123	1.18731	1.14868	28.0388	7.54918e-06	2.78578e-05	1.81564e-05	2.88036e-05	2.51067e-05	1.18241e-05	0.763637	0.24903	9.81132	1.34148e-06	8.78447e-07	8.95889e-07	6.53659e-07	7.08783e-07	8.49343e-07	0.0538139	0.0351336	0.0642675	33.1394	14046.3	21514.7	25694	-56.8606	0.0000000E+000	0.0000000E+000	0.0000000E+000	56.8606	0.0000000E+000	0.0000000E+000	0.0000000E+000	-56.8606	0.0000000E+000	0.0000000E+000	0.0000000E+000	-33.1394	0.0000000E+000	0.0000000E+000	0.0000000E+000	33.1394	1.53169	56.8606	-2.78908e-07
251.206	15.9858	8.67046	18.1857	-28.4748	410.298	0.441778	-0.00364039	73.0715	16.61	1	38	0.00461431	0.000253732	0	-0.000172298	1.34998	0.70037	28.2899	1.91678e-05	1.1425e-05	2.29504e-05	1.66846e-05	2.37357e-05	4.30313e-05	0.782129	0.276414	11.8184	1.47423e-06	6.55975e-07	7.11921e-07	4.56577e-07	4.70287e-07	3.60334e-07	0.0483361	0.0262168	0.0549881	28.4748	16610	30624	34838.5	-61.5252	0.0000000E+000	0.0000000E+000	0.0000000E+000	61.5252	0.0000000E+000	0.0000000E+000	0.0000000E+000	-61.5252	0.0000000E+000	0.0000000E+000	0.0000000E+000	-28.4748	0.0000000E+000	0.0000000E+000	0.0000000E+000	28.4748	1.8437	61.5252	-4.24453e-07
158.529	18.7325	8.80407	20.6983	-25.173	411.791	0.44179	-0.00293471	114.032	20.6313	1	38	0.00461932	0.000223175	0	-0.000174056	1.41901	0.846284	27.9066	2.1036e-05	9.61313e-06	2.8325e-05	3.62265e-05	2.1419e-05	2.94878e-05	0.999328	0.185405	13.3473	1.83489e-06	8.33052e-07	4.90872e-07	4.11762e-07	4.50325e-07	4.82303e-07	0.0437248	0.0205502	0.0483132	25.173	20631.3	43897.5	48504	-64.827	0.0000000E+000	0.0000000E+000	0.0000000E+000	64.827	0.0000000E+000	0.0000000E+000	0.0000000E+000	-64.827	0.0000000E+000	0.0000000E+000	0.0000000E+000	-25.173	0.0000000E+000	0.0000000E+000	0.0000000E+000	25.173	2.12771	64.827	-8.5446e-07
99.9682	21.2258	9.11336	23.0996	-23.2364	413.516	0.441789	0.000801034	174.695	27.1913	1	39	0.00462528	0.000200232	0	-0.000174672	1.74713	0.607923	28.1796	2.53806e-05	2.76178e-05	3.1631e-05	2.73715e-05	3.25213e-05	4.69878e-05	0.583934	0.15765	6.08834	9.745e-07	2.83541e-07	2.93305e-07	2.27901e-07	3.19999e-07	2.85916e-07	0.0397793	0.0170793	0.0432909	23.2364	27191.3	63330.9	68921.5	-66.7636	0.0000000E+000	0.0000000E+000	0.0000000E+000	66.7636	0.0000000E+000	0.0000000E+000	0.0000000E+000	-66.7636	0.0000000E+000	0.0000000E+000	0.0000000E+000	-23.2364	0.0000000E+000	0.0000000E+000	0.0000000E+000	23.2364	2.32909	66.7636	-1.83374e-07