File: Python/Data/GoldElectrode/240322/Gold/240322-CVEIS-Activation-5mM_Fe2Fe3-1M_H2SO4-0000RPM-Ag_AgCl_BLF8-Au_RDE_10_PEIS_C15.mpt
EC-Lab ASCII FILE
Nb header lines : 66

Potentio Electrochemical Impedance Spectroscopy

Run on channel : 15 (SN 19485)
User :
Electrode connection : standard
Potential control : Ewe
Ewe ctrl range : min = -2.50 V, max = 2.50 V
Ewe,I filtering : 50 kHz
Safety Limits :
	Do not start on E overload
Channel : Floating
Acquisition started on : 03/22/2024 10:02:07.151
Loaded Setting File :  C:\Data\mathias\GoldElectrode\240321-CVEIS-Activation-5mM_Fe2Fe3-1M_H2SO4-0000RPM-Ag_AgCl_BLF8-Au_RDE.mps
Saved on :
	File : 240322-CVEIS-Activation-5mM_Fe2Fe3-1M_H2SO4-0000RPM-Ag_AgCl_BLF8-Au_RDE_10_PEIS_C15.mpr
	Directory : C:\Data\mathias\GoldElectrode\
	Host : 192.168.0.1
Device : VMP-300 (SN 0826)
Address : USB
EC-Lab for windows v11.52 (software)
Internet server v11.52 (firmware)
Command interpretor v11.52 (firmware)
Electrode material :
Initial state :
Electrolyte :
Comments :
Cable : special
Electrode surface area : 0.001 cm²
Characteristic mass : 0.001 g
Equivalent Weight : 0.000 g/eq.
Density : 0.000 g/cm3
Volume (V) : 0.001 cm³
Record EIS quality indicators
Cycle Definition : Charge/Discharge alternance
Mode                Single sine
E (V)               0.0000
vs.                 Eoc
tE (h:m:s)          0:00:0.0000
record              0
dI                  0.000
unit dI             mA
dt (s)              0.000
fi                  100.000
unit fi             kHz
ff                  100.000
unit ff             Hz
Nd                  10
Points              per decade
spacing             Logarithmic
Va (mV)             5.0
pw                  0.10
Na                  2
corr                0
E range min (V)     -2.500
E range max (V)     2.500
I Range             Auto
Bandwidth           8
nc cycles           0
goto Ns'            0
nr cycles           0
inc. cycle          0

freq/Hz	Re(Z)/Ohm	-Im(Z)/Ohm	|Z|/Ohm	Phase(Z)/deg	time/s	<Ewe>/V	<I>/mA	Cs/µF	Cp/µF	cycle number	I Range	|Ewe|/V	|I|/A	Ns	(Q-Qo)/mA.h	THD Ewe/%	NSD Ewe/%	NSR Ewe/%	|Ewe h2|/V	|Ewe h3|/V	|Ewe h4|/V	|Ewe h5|/V	|Ewe h6|/V	|Ewe h7|/V	THD I/%	NSD I/%	NSR I/%	|I h2|/A	|I h3|/A	|I h4|/A	|I h5|/A	|I h6|/A	|I h7|/A	Re(Y)/Ohm-1	Im(Y)/Ohm-1	|Y|/Ohm-1	Phase(Y)/deg	Re(C)/nF	Im(C)/nF	|C|/nF	Phase(C)/deg	Re(M)	Im(M)	|M|	Phase(M)/deg	Re(Permittivity)	Im(Permittivity)	|Permittivity|	Phase(Permittivity)/deg	Re(Resistivity)/Ohm.cm	Im(Resistivity)/Ohm.cm	|Resistivity|/Ohm.cm	Phase(Resistivity)/deg	Re(Conductivity)/mS/cm	Im(Conductivity)/mS/cm	|Conductivity|/mS/cm	Phase(Conductivity)/deg	Tan(Delta)	Loss Angle(Delta)/deg	dq/mA.h
100004	2.74813	0.112326	2.75042	-2.34059	1549.51	0.441917	-0.0548133	14.1685	0.0236313	1	37	0.00485874	0.00176655	0	2.65822e-05	1.07165	0.553665	27.2186	1.62884e-05	3.43062e-05	1.25098e-05	1.46609e-05	2.52804e-05	1.19021e-05	0.562005	0.490513	9.79252	3.67662e-06	5.15968e-06	5.01958e-06	2.84973e-06	4.05263e-06	1.96277e-06	0.363278	0.0148485	0.363581	2.34059	23.6313	578.153	578.635	-87.6594	0.0000000E+000	0.0000000E+000	0.0000000E+000	87.6594	0.0000000E+000	0.0000000E+000	0.0000000E+000	-87.6594	0.0000000E+000	0.0000000E+000	0.0000000E+000	-2.34059	0.0000000E+000	0.0000000E+000	0.0000000E+000	2.34059	24.4655	87.6594	2.65822e-05
63093.8	2.72062	0.186888	2.72704	-3.92966	1551.14	0.441877	-0.0724009	13.4974	0.063392	1	37	0.00517077	0.00189611	0	-3.34712e-07	1.19347	0.786709	24.9696	4.48289e-05	2.07681e-05	2.2008e-05	1.39522e-05	9.83352e-06	2.06498e-05	0.457688	0.350256	9.2509	6.2698e-06	2.32622e-06	1.78641e-06	1.95799e-06	4.24864e-06	1.94429e-06	0.365836	0.0251305	0.366699	3.92966	63.3919	922.827	925.002	-86.0703	0.0000000E+000	0.0000000E+000	0.0000000E+000	86.0703	0.0000000E+000	0.0000000E+000	0.0000000E+000	-86.0703	0.0000000E+000	0.0000000E+000	0.0000000E+000	-3.92966	0.0000000E+000	0.0000000E+000	0.0000000E+000	3.92966	14.5575	86.0703	-1.31542e-05
39814.1	2.74833	0.26211	2.7608	-5.44787	1552.77	0.441871	-0.080199	15.251	0.137467	1	37	0.00516898	0.00187228	0	-2.77142e-05	1.60232	0.699243	25.2467	5.3884e-05	3.00654e-05	2.5127e-05	3.33168e-05	2.69813e-05	1.78904e-05	0.636294	0.347341	9.39715	5.31382e-06	4.66033e-06	3.97567e-06	4.83331e-06	5.33261e-06	2.88766e-06	0.360578	0.0343886	0.362214	5.44787	137.467	1441.39	1447.93	-84.5521	0.0000000E+000	0.0000000E+000	0.0000000E+000	84.5521	0.0000000E+000	0.0000000E+000	0.0000000E+000	-84.5521	0.0000000E+000	0.0000000E+000	0.0000000E+000	-5.44787	0.0000000E+000	0.0000000E+000	0.0000000E+000	5.44787	10.4854	84.5521	-1.44872e-05
25116.9	2.78146	0.420068	2.813	-8.58815	1554.4	0.44189	-0.0847774	15.0846	0.336382	1	37	0.00520545	0.0018505	0	-6.2899e-05	1.09747	0.83291	25.4401	1.68594e-05	1.76269e-05	1.93684e-05	7.8014e-06	2.47413e-05	3.5963e-05	0.604348	0.226627	9.53749	2.70644e-06	6.4227e-06	5.8014e-06	3.09005e-06	2.89771e-06	3.39952e-06	0.351506	0.0530859	0.355492	8.58815	336.382	2227.34	2252.6	-81.4119	0.0000000E+000	0.0000000E+000	0.0000000E+000	81.4119	0.0000000E+000	0.0000000E+000	0.0000000E+000	-81.4119	0.0000000E+000	0.0000000E+000	0.0000000E+000	-8.58815	0.0000000E+000	0.0000000E+000	0.0000000E+000	8.58815	6.62146	81.4119	-1.49148e-05
15847.7	2.8355	0.607418	2.89983	-12.0911	1556.03	0.441911	-0.0830466	16.5336	0.72543	1	37	0.00508197	0.0017525	0	-0.000101505	1.02724	0.704613	26.0955	9.55721e-06	1.86352e-05	9.88339e-06	2.21137e-05	2.68967e-05	2.42953e-05	0.45174	0.251522	10.0078	2.56036e-06	5.17107e-06	4.18414e-06	1.90294e-06	2.09149e-06	9.66367e-07	0.337197	0.072234	0.344847	12.0911	725.431	3386.4	3463.23	-77.9089	0.0000000E+000	0.0000000E+000	0.0000000E+000	77.9089	0.0000000E+000	0.0000000E+000	0.0000000E+000	-77.9089	0.0000000E+000	0.0000000E+000	0.0000000E+000	-12.0911	0.0000000E+000	0.0000000E+000	0.0000000E+000	12.0911	4.66812	77.9089	-1.72016e-05
10002.2	2.94711	0.870732	3.07305	-16.4599	1557.66	0.441878	-0.0841446	18.2742	1.46713	1	37	0.00513765	0.00167184	0	-0.000141119	1.28839	0.661908	26.3589	1.59897e-05	3.64126e-05	2.64975e-05	2.76099e-05	2.52774e-05	1.33785e-05	0.440336	0.204879	10.6827	1.7456e-06	3.33827e-06	2.22674e-06	2.0856e-06	4.40068e-06	3.27495e-06	0.312074	0.092203	0.32541	16.4599	1467.13	4965.7	5177.9	-73.5401	0.0000000E+000	0.0000000E+000	0.0000000E+000	73.5401	0.0000000E+000	0.0000000E+000	0.0000000E+000	-73.5401	0.0000000E+000	0.0000000E+000	0.0000000E+000	-16.4599	0.0000000E+000	0.0000000E+000	0.0000000E+000	16.4599	3.38464	73.5401	-1.94117e-05
6307.74	3.16785	1.26981	3.41287	-21.843	1559.42	0.441801	-0.0834932	19.8705	2.75071	1	37	0.00499415	0.00146333	0	-0.000184068	1.23438	1.43343	26.7618	3.71939e-05	2.92248e-05	9.82999e-06	1.36822e-05	1.95531e-05	2.43139e-05	0.561708	0.315157	12.2176	3.237e-06	2.06724e-06	3.18886e-06	2.92862e-06	2.15334e-06	5.23363e-06	0.271972	0.109018	0.293008	21.843	2750.71	6862.32	7393.1	-68.157	0.0000000E+000	0.0000000E+000	0.0000000E+000	68.157	0.0000000E+000	0.0000000E+000	0.0000000E+000	-68.157	0.0000000E+000	0.0000000E+000	0.0000000E+000	-21.843	0.0000000E+000	0.0000000E+000	0.0000000E+000	21.843	2.49474	68.157	-2.15721e-05
3981.28	3.50753	1.7739	3.93058	-26.8275	1561.17	0.441744	-0.0046849	22.5356	4.59	1	38	0.0051685	0.00131495	0	-0.00020823	1.32709	0.608565	25.1364	4.67304e-05	1.48096e-05	2.6831e-05	2.59551e-05	1.613e-05	1.58286e-05	0.161737	0.111543	2.23266	1.28939e-06	7.06093e-07	9.07483e-07	6.1587e-07	5.5894e-07	7.26923e-07	0.227032	0.114819	0.254415	26.8275	4590	9075.82	10170.5	-63.1725	0.0000000E+000	0.0000000E+000	0.0000000E+000	63.1725	0.0000000E+000	0.0000000E+000	0.0000000E+000	-63.1725	0.0000000E+000	0.0000000E+000	0.0000000E+000	-26.8275	0.0000000E+000	0.0000000E+000	0.0000000E+000	26.8275	1.9773	63.1725	-8.21335e-06
2512.41	4.07619	2.38072	4.7205	-30.2873	1562.88	0.441782	-0.00459368	26.6086	6.76801	1	38	0.00508523	0.00107726	0	-0.000212014	1.51931	0.710522	24.7132	1.42312e-05	3.05675e-05	5.20287e-05	3.07494e-05	1.93795e-05	2.39179e-05	0.254067	0.102244	2.81222	2.04571e-06	9.89105e-07	7.20064e-07	1.00091e-06	3.5064e-07	6.52622e-07	0.182927	0.106839	0.211842	30.2873	6768.01	11588	13419.6	-59.7127	0.0000000E+000	0.0000000E+000	0.0000000E+000	59.7127	0.0000000E+000	0.0000000E+000	0.0000000E+000	-59.7127	0.0000000E+000	0.0000000E+000	0.0000000E+000	-30.2873	0.0000000E+000	0.0000000E+000	0.0000000E+000	30.2873	1.71217	59.7127	-3.64728e-06
1584.49	4.91927	2.9742	5.74849	-31.1572	1564.37	0.441785	-0.00434418	33.7722	9.04051	1	38	0.0050263	0.000874369	0	-0.000214868	1.60106	1.03505	25.7031	3.66691e-05	2.76122e-05	4.40482e-05	2.48381e-05	1.85026e-05	3.38914e-05	0.337371	0.10273	3.44649	2.50747e-06	8.44792e-07	5.20227e-07	7.20306e-07	7.77733e-07	4.55709e-07	0.148865	0.0900042	0.173959	31.1572	9040.51	14952.8	17473.3	-58.8428	0.0000000E+000	0.0000000E+000	0.0000000E+000	58.8428	0.0000000E+000	0.0000000E+000	0.0000000E+000	-58.8428	0.0000000E+000	0.0000000E+000	0.0000000E+000	-31.1572	0.0000000E+000	0.0000000E+000	0.0000000E+000	31.1572	1.65398	58.8428	-1.78296e-06
999.682	5.88953	3.48663	6.84421	-30.6258	1565.85	0.441792	-0.00634763	45.6617	11.85	1	38	0.00487012	0.000711569	0	-0.000217359	1.45496	0.82449	25.5758	2.87764e-05	2.75829e-05	2.63957e-05	8.77344e-06	2.07188e-05	4.22488e-05	0.377811	0.0780062	4.26988	2.04674e-06	1.23906e-06	3.74143e-07	9.04917e-07	3.77548e-07	4.60745e-07	0.125729	0.0744321	0.146109	30.6258	11850	20016.7	23261.4	-59.3742	0.0000000E+000	0.0000000E+000	0.0000000E+000	59.3742	0.0000000E+000	0.0000000E+000	0.0000000E+000	-59.3742	0.0000000E+000	0.0000000E+000	0.0000000E+000	-30.6258	0.0000000E+000	0.0000000E+000	0.0000000E+000	30.6258	1.68917	59.3742	-8.57478e-07
631.01	7.09682	3.89015	8.09309	-28.7295	1567.34	0.441792	-0.00438701	64.8363	14.9803	1	38	0.0048376	0.000597744	0	-0.000219657	1.21465	0.901215	25.9156	1.27348e-05	3.94488e-05	1.41448e-05	1.95573e-05	1.77722e-05	2.60417e-05	0.530842	0.165355	4.91357	2.4021e-06	1.22575e-06	9.35781e-07	9.38901e-07	5.80257e-07	4.61855e-07	0.108352	0.0593933	0.123562	28.7295	14980.3	27328.7	31165.2	-61.2705	0.0000000E+000	0.0000000E+000	0.0000000E+000	61.2705	0.0000000E+000	0.0000000E+000	0.0000000E+000	-61.2705	0.0000000E+000	0.0000000E+000	0.0000000E+000	-28.7295	0.0000000E+000	0.0000000E+000	0.0000000E+000	28.7295	1.82431	61.2705	-7.34558e-07
398.089	8.25658	4.28562	9.30256	-27.4318	1568.83	0.441818	-0.00358452	93.2882	19.7992	1	38	0.00478836	0.000514736	0	-0.000220488	1.79141	0.760353	26.9688	1.14295e-05	4.11238e-05	2.66588e-05	1.55664e-05	4.67755e-05	1.8748e-05	0.603021	0.137399	5.89778	2.48279e-06	3.21533e-07	2.4402e-07	9.92707e-07	7.46322e-07	1.10982e-06	0.0954103	0.0495231	0.107497	27.4318	19799.2	38144.8	42977.1	-62.5682	0.0000000E+000	0.0000000E+000	0.0000000E+000	62.5682	0.0000000E+000	0.0000000E+000	0.0000000E+000	-62.5682	0.0000000E+000	0.0000000E+000	0.0000000E+000	-27.4318	0.0000000E+000	0.0000000E+000	0.0000000E+000	27.4318	1.92658	62.5682	-4.96737e-07
251.206	9.45502	4.74169	10.5774	-26.6338	1570.31	0.441791	-0.00285278	133.615	26.8514	1	38	0.0047698	0.000450943	0	-0.000221637	0.948303	0.776985	27.2739	1.52515e-05	1.20314e-05	1.52014e-05	2.48815e-05	2.20384e-05	1.18978e-05	0.722692	0.240848	6.59735	2.91994e-06	4.31857e-07	4.2993e-07	8.94525e-07	6.85249e-07	5.27445e-07	0.0845095	0.0423815	0.0945413	26.6338	26851.4	53542.2	59897.9	-63.3662	0.0000000E+000	0.0000000E+000	0.0000000E+000	63.3662	0.0000000E+000	0.0000000E+000	0.0000000E+000	-63.3662	0.0000000E+000	0.0000000E+000	0.0000000E+000	-26.6338	0.0000000E+000	0.0000000E+000	0.0000000E+000	26.6338	1.99402	63.3662	-2.6457e-07
158.529	10.7429	5.32689	11.9911	-26.3746	1571.8	0.441801	-0.00353798	188.468	37.1937	1	38	0.0047597	0.000396937	0	-0.000223892	1.33207	0.542317	26.4263	1.73703e-05	2.64803e-05	1.46471e-05	4.5127e-05	2.05801e-05	1.55401e-05	0.635256	0.129355	7.54415	2.144e-06	4.13032e-07	4.09792e-07	7.40911e-07	5.9021e-07	5.93563e-07	0.0747147	0.0370474	0.0833954	26.3746	37193.7	75009.7	83724.7	-63.6254	0.0000000E+000	0.0000000E+000	0.0000000E+000	63.6254	0.0000000E+000	0.0000000E+000	0.0000000E+000	-63.6254	0.0000000E+000	0.0000000E+000	0.0000000E+000	-26.3746	0.0000000E+000	0.0000000E+000	0.0000000E+000	26.3746	2.01673	63.6254	-1.10871e-06
99.9682	12.1681	6.19049	13.6522	-26.9647	1573.28	0.441815	-0.00274666	257.178	52.878	1	38	0.00476474	0.000349008	0	-0.000224687	1.89393	1.28914	26.8184	3.27969e-05	3.78502e-05	1.48675e-05	2.01264e-05	3.57538e-05	5.64813e-05	0.887355	0.405624	8.44923	2.35747e-06	1.16868e-06	7.1433e-07	6.77943e-07	5.54977e-07	9.93494e-07	0.065285	0.0332137	0.073248	26.9647	52878	103937	116615	-63.0353	0.0000000E+000	0.0000000E+000	0.0000000E+000	63.0353	0.0000000E+000	0.0000000E+000	0.0000000E+000	-63.0353	0.0000000E+000	0.0000000E+000	0.0000000E+000	-26.9647	0.0000000E+000	0.0000000E+000	0.0000000E+000	26.9647	1.9656	63.0353	-5.28457e-07