File: Python/Data/GoldElectrode/240322/Gold/240322-CVEIS-PostActivation-5mM_Fe2Fe3-1M_H2SO4-0000RPM-Ag_AgCl_BLF8-Au_RDE_02_PEIS_C15.mpt
EC-Lab ASCII FILE
Nb header lines : 66

Potentio Electrochemical Impedance Spectroscopy

Run on channel : 15 (SN 19485)
User :
Electrode connection : standard
Potential control : Ewe
Ewe ctrl range : min = -1.00 V, max = 1.00 V
Ewe,I filtering : <None>
Safety Limits :
	Do not start on E overload
Channel : Floating
Acquisition started on : 03/22/2024 10:39:57.841
Loaded Setting File :  C:\Data\mathias\GoldElectrode\240320-CVEIS_PostActivation-Fe2Fe3_5mM-HCl1M-0000RPM-Ag_AgCl_BLF8-Au_RDE.mps
Saved on :
	File : 240322-CVEIS-PostActivation-5mM_Fe2Fe3-1M_H2SO4-0000RPM-Ag_AgCl_BLF8-Au_RDE_02_PEIS_C15.mpr
	Directory : C:\Data\mathias\GoldElectrode\
	Host : 192.168.0.1
Device : VMP-300 (SN 0826)
Address : USB
EC-Lab for windows v11.52 (software)
Internet server v11.52 (firmware)
Command interpretor v11.52 (firmware)
Electrode material :
Initial state :
Electrolyte :
Comments :
Cable : special
Electrode surface area : 0.001 cm²
Characteristic mass : 0.001 g
Equivalent Weight : 0.000 g/eq.
Density : 0.000 g/cm3
Volume (V) : 0.001 cm³
Record EIS quality indicators
Cycle Definition : Charge/Discharge alternance
Mode                Single sine
E (V)               0.0000
vs.                 Eoc
tE (h:m:s)          0:00:0.0000
record              0
dI                  0.000
unit dI             mA
dt (s)              0.000
fi                  400.000
unit fi             kHz
ff                  100.000
unit ff             mHz
Nd                  10
Points              per decade
spacing             Logarithmic
Va (mV)             5.0
pw                  0.10
Na                  3
corr                0
E range min (V)     -1.000
E range max (V)     1.000
I Range             Auto
Bandwidth           8
nc cycles           2
goto Ns'            0
nr cycles           0
inc. cycle          1

freq/Hz	Re(Z)/Ohm	-Im(Z)/Ohm	|Z|/Ohm	Phase(Z)/deg	time/s	<Ewe>/V	<I>/mA	Cs/µF	Cp/µF	cycle number	I Range	|Ewe|/V	|I|/A	Ns	(Q-Qo)/mA.h	THD Ewe/%	NSD Ewe/%	NSR Ewe/%	|Ewe h2|/V	|Ewe h3|/V	|Ewe h4|/V	|Ewe h5|/V	|Ewe h6|/V	|Ewe h7|/V	THD I/%	NSD I/%	NSR I/%	|I h2|/A	|I h3|/A	|I h4|/A	|I h5|/A	|I h6|/A	|I h7|/A	Re(Y)/Ohm-1	Im(Y)/Ohm-1	|Y|/Ohm-1	Phase(Y)/deg	Re(C)/nF	Im(C)/nF	|C|/nF	Phase(C)/deg	Re(M)	Im(M)	|M|	Phase(M)/deg	Re(Permittivity)	Im(Permittivity)	|Permittivity|	Phase(Permittivity)/deg	Re(Resistivity)/Ohm.cm	Im(Resistivity)/Ohm.cm	|Resistivity|/Ohm.cm	Phase(Resistivity)/deg	Re(Conductivity)/mS/cm	Im(Conductivity)/mS/cm	|Conductivity|/mS/cm	Phase(Conductivity)/deg	Tan(Delta)	Loss Angle(Delta)/deg	dq/mA.h
399996	3.23296	0.233521	3.24138	-4.13138	142.804	0.441048	-0.0415807	1.70388	0.00884361	1	37	0.00455848	0.00140634	0	1.7478e-05	-1	-1	-1	0	0	0	0	0	0	-1	-1	-1	0	0	0	0	0	0	0.307709	0.0222262	0.30851	4.13138	8.84361	122.434	122.753	-85.8686	0.0000000E+000	0.0000000E+000	0.0000000E+000	85.8686	0.0000000E+000	0.0000000E+000	0.0000000E+000	-85.8686	0.0000000E+000	0.0000000E+000	0.0000000E+000	-4.13138	0.0000000E+000	0.0000000E+000	0.0000000E+000	4.13138	13.8444	85.8686	1.7478e-05
20032.3	2.80872	0.546937	2.86148	-11.0192	157.725	0.441085	-0.0522449	14.5262	0.530696	1	37	0.00511248	0.00178666	0	-0.000188044	1.25922	0.645304	25.3123	2.10773e-05	2.51456e-05	2.37707e-05	2.46573e-05	3.17631e-05	2.09453e-05	0.475295	0.252043	9.88326	4.87767e-06	2.80888e-06	3.46121e-06	2.36785e-06	1.81741e-06	3.12097e-06	0.343027	0.0667969	0.34947	11.0192	530.696	2725.32	2776.51	-78.9808	0.0000000E+000	0.0000000E+000	0.0000000E+000	78.9808	0.0000000E+000	0.0000000E+000	0.0000000E+000	-78.9808	0.0000000E+000	0.0000000E+000	0.0000000E+000	-11.0192	0.0000000E+000	0.0000000E+000	0.0000000E+000	11.0192	5.13536	78.9808	-1.41509e-05
1002.75	6.58255	5.40766	8.51896	-39.4036	172.93	0.44092	-0.00524723	29.3506	11.8267	1	38	0.00474994	0.000557572	0	-0.000299835	1.17427	0.671717	27.2248	2.56145e-05	2.484e-05	2.70218e-05	1.85484e-05	1.47577e-05	1.76767e-05	0.42334	0.199567	5.33717	1.37951e-06	1.22085e-06	5.16982e-07	1.13665e-06	1.93389e-07	4.57029e-07	0.0907028	0.0745136	0.117385	39.4036	11826.7	14396.2	18631.2	-50.5964	0.0000000E+000	0.0000000E+000	0.0000000E+000	50.5964	0.0000000E+000	0.0000000E+000	0.0000000E+000	-50.5964	0.0000000E+000	0.0000000E+000	0.0000000E+000	-39.4036	0.0000000E+000	0.0000000E+000	0.0000000E+000	39.4036	1.21726	50.5964	-1.71093e-06
50.2089	20.4029	9.49598	22.5045	-24.9583	187.473	0.440963	-0.000169443	333.811	59.4347	1	39	0.00462795	0.000205646	0	-0.000311705	1.35227	0.824908	28.687	3.38777e-05	1.81402e-05	2.06889e-05	2.09639e-05	2.4984e-05	1.83969e-05	0.515121	0.167665	6.04887	8.86556e-07	2.47844e-07	2.34662e-07	1.77364e-07	2.79032e-07	2.38465e-07	0.0402859	0.01875	0.0444355	24.9583	59434.7	127701	140854	-65.0417	0.0000000E+000	0.0000000E+000	0.0000000E+000	65.0417	0.0000000E+000	0.0000000E+000	0.0000000E+000	-65.0417	0.0000000E+000	0.0000000E+000	0.0000000E+000	-24.9583	0.0000000E+000	0.0000000E+000	0.0000000E+000	24.9583	2.14859	65.0417	-1.32142e-07
2.51368	49.2198	34.0424	59.8454	-34.6693	207.065	0.440958	-0.000135163	1859.9	601.824	1	40	0.0046017	7.68932e-05	0	-0.000311557	0.761698	0.351278	14.9354	9.63911e-06	7.59944e-06	1.14816e-05	1.46678e-05	1.92759e-05	1.04184e-05	0.640159	0.0891317	1.13143	4.78942e-07	5.55684e-08	3.24795e-08	8.95437e-08	1.32809e-08	9.42223e-09	0.0137429	0.00950514	0.0167097	34.6693	601824	870139	1.05799e+06	-55.3307	0.0000000E+000	0.0000000E+000	0.0000000E+000	55.3307	0.0000000E+000	0.0000000E+000	0.0000000E+000	-55.3307	0.0000000E+000	0.0000000E+000	0.0000000E+000	-34.6693	0.0000000E+000	0.0000000E+000	0.0000000E+000	34.6693	1.44584	55.3307	6.39961e-07
0.125939	170.175	149.056	226.224	-41.215	443.32	0.440971	-0.000124911	8478.37	3680.73	1	41	0.00459254	2.03009e-05	0	-0.000325997	0.3056	0.141509	4.21357	4.91582e-06	6.80452e-06	6.6001e-06	5.25791e-06	3.9059e-06	5.58831e-06	0.858001	0.27309	1.05606	1.67943e-07	1.57285e-08	1.48735e-08	3.35408e-08	1.00735e-08	9.36577e-09	0.00332521	0.00291255	0.0044204	41.215	3.68073e+06	4.20224e+06	5.58628e+06	-48.785	0.0000000E+000	0.0000000E+000	0.0000000E+000	48.785	0.0000000E+000	0.0000000E+000	0.0000000E+000	-48.785	0.0000000E+000	0.0000000E+000	0.0000000E+000	-41.215	0.0000000E+000	0.0000000E+000	0.0000000E+000	41.215	1.14169	48.785	4.04472e-07
31751	2.76717	0.420109	2.79888	-8.63265	520.883	0.441059	-0.0481504	11.9317	0.268816	2	37	0.00517951	0.00185056	0	-0.000571454	1.2044	0.601104	25.8116	3.02891e-05	2.7146e-05	2.62404e-05	1.74107e-05	2.00741e-05	2.48167e-05	0.604288	0.258045	9.52783	2.93831e-06	4.601e-06	5.90117e-06	3.47754e-06	4.63088e-06	3.02455e-06	0.353238	0.0536281	0.357285	8.63265	268.815	1770.64	1790.93	-81.3674	0.0000000E+000	0.0000000E+000	0.0000000E+000	81.3674	0.0000000E+000	0.0000000E+000	0.0000000E+000	-81.3674	0.0000000E+000	0.0000000E+000	0.0000000E+000	-8.63265	0.0000000E+000	0.0000000E+000	0.0000000E+000	8.63265	6.58681	81.3674	-1.52217e-05
1589.49	4.97419	5.24025	7.22515	-46.492	536.202	0.440965	-0.00488601	19.1078	10.0512	2	38	0.00476697	0.000659775	0	-0.000720465	1.54028	0.700499	27.5731	3.02043e-05	3.39681e-05	2.29182e-05	1.86506e-05	2.10707e-05	3.33168e-05	0.491451	0.127468	4.58957	2.18009e-06	1.96872e-06	5.48415e-07	7.96604e-07	4.5943e-07	6.98836e-07	0.095286	0.100383	0.138405	46.492	10051.2	9540.93	13858.5	-43.508	0.0000000E+000	0.0000000E+000	0.0000000E+000	43.508	0.0000000E+000	0.0000000E+000	0.0000000E+000	-43.508	0.0000000E+000	0.0000000E+000	0.0000000E+000	-46.492	0.0000000E+000	0.0000000E+000	0.0000000E+000	46.492	0.949228	43.508	-1.83151e-06
79.6177	22.4695	9.83562	24.5279	-23.6405	551.029	0.440931	-0.000456467	203.24	32.6807	2	39	0.00491819	0.000200514	0	-0.000730135	1.42335	0.744143	26.0338	1.55098e-05	2.5721e-05	3.12858e-05	2.62367e-05	3.49942e-05	2.47676e-05	0.545001	0.167057	6.1574	8.69047e-07	4.71815e-07	1.11494e-07	2.50928e-07	2.56692e-07	2.0574e-07	0.0373484	0.0163486	0.0407699	23.6405	32680.7	74659.2	81498.6	-66.3595	0.0000000E+000	0.0000000E+000	0.0000000E+000	66.3595	0.0000000E+000	0.0000000E+000	0.0000000E+000	-66.3595	0.0000000E+000	0.0000000E+000	0.0000000E+000	-23.6405	0.0000000E+000	0.0000000E+000	0.0000000E+000	23.6405	2.2845	66.3595	-1.62753e-07
3.98597	46.5959	27.6456	54.1799	-30.6809	566.813	0.440968	-0.000165254	1444.31	376.042	2	39	0.00489668	9.03782e-05	0	-0.000731588	0.730687	0.453945	12.572	1.0255e-05	1.58885e-05	1.04878e-05	1.4237e-05	1.27371e-05	1.60149e-05	0.576258	0.219688	7.0452	3.65905e-07	2.11691e-07	1.56325e-07	1.53391e-07	7.98674e-08	1.54645e-07	0.0158735	0.00941781	0.018457	30.6809	376042	633808	736966	-59.3191	0.0000000E+000	0.0000000E+000	0.0000000E+000	59.3191	0.0000000E+000	0.0000000E+000	0.0000000E+000	-59.3191	0.0000000E+000	0.0000000E+000	0.0000000E+000	-30.6809	0.0000000E+000	0.0000000E+000	0.0000000E+000	30.6809	1.68547	59.3191	1.40198e-07
0.199573	141.676	118.908	184.963	-40.0066	721.368	0.440971	-0.00011536	6706.65	2771.78	2	41	0.00490319	2.6509e-05	0	-0.00073389	0.300606	0.222779	4.85589	6.36186e-06	7.14394e-06	5.50849e-06	5.64459e-06	4.0044e-06	2.76545e-06	0.861915	0.312449	0.760704	2.20105e-07	1.71137e-08	1.91997e-08	4.70175e-08	1.42715e-08	1.21301e-08	0.00414121	0.0034757	0.00540649	40.0066	2.77178e+06	3.30252e+06	4.31154e+06	-49.9934	0.0000000E+000	0.0000000E+000	0.0000000E+000	49.9934	0.0000000E+000	0.0000000E+000	0.0000000E+000	-49.9934	0.0000000E+000	0.0000000E+000	0.0000000E+000	-40.0066	0.0000000E+000	0.0000000E+000	0.0000000E+000	40.0066	1.19148	49.9934	-2.28002e-06
50326.6	2.74138	0.277045	2.75535	-5.77074	883.983	0.441063	-0.030358	11.4149	0.115404	3	37	0.00517549	0.00187835	0	-0.000880874	1.3513	0.435297	25.3572	2.17663e-05	2.63419e-05	2.71151e-05	3.7185e-05	2.47168e-05	2.66178e-05	0.551423	0.352657	9.35365	4.82642e-06	3.98272e-06	2.57446e-06	4.94213e-06	3.78148e-06	3.91622e-06	0.361092	0.0364921	0.362931	5.77074	115.404	1141.93	1147.75	-84.2293	0.0000000E+000	0.0000000E+000	0.0000000E+000	84.2293	0.0000000E+000	0.0000000E+000	0.0000000E+000	-84.2293	0.0000000E+000	0.0000000E+000	0.0000000E+000	-5.77074	0.0000000E+000	0.0000000E+000	0.0000000E+000	5.77074	9.89507	84.2293	-1.19796e-05
2519.19	3.93465	3.89093	5.53361	-44.6799	899.35	0.44096	-0.00369622	16.237	8.02779	3	38	0.00522396	0.000944041	0	-0.000981533	1.35089	0.589112	24.481	2.05064e-05	2.53229e-05	4.037e-05	1.51738e-05	2.86028e-05	2.19659e-05	0.265122	0.0968666	3.15547	1.81631e-06	8.9386e-07	3.79003e-07	7.43326e-07	9.37408e-07	5.69081e-07	0.128496	0.127068	0.180714	44.6799	8027.79	8117.98	11417	-45.3201	0.0000000E+000	0.0000000E+000	0.0000000E+000	45.3201	0.0000000E+000	0.0000000E+000	0.0000000E+000	-45.3201	0.0000000E+000	0.0000000E+000	0.0000000E+000	-44.6799	0.0000000E+000	0.0000000E+000	0.0000000E+000	44.6799	1.01124	45.3201	-9.59945e-07
126.171	21.7701	10.4374	24.1428	-25.6147	913.978	0.440987	-4.40104e-05	120.856	22.5878	3	39	0.00463592	0.000192021	0	-0.000987025	1.17068	0.635275	28.1627	1.33984e-05	1.87222e-05	2.30202e-05	1.87073e-05	2.95457e-05	2.15467e-05	0.446477	0.158072	6.32334	6.49847e-07	2.39561e-07	1.85674e-07	3.0412e-07	1.78567e-07	1.5744e-07	0.0373495	0.0179066	0.0414202	25.6147	22587.8	47113.4	52248.3	-64.3853	0.0000000E+000	0.0000000E+000	0.0000000E+000	64.3853	0.0000000E+000	0.0000000E+000	0.0000000E+000	-64.3853	0.0000000E+000	0.0000000E+000	0.0000000E+000	-25.6147	0.0000000E+000	0.0000000E+000	0.0000000E+000	25.6147	2.08579	64.3853	1.74327e-07
6.31569	43.725	22.6042	49.2222	-27.3373	928.415	0.440966	-6.27446e-05	1114.83	235.108	3	39	0.00460374	9.35297e-05	0	-0.000985867	0.864874	0.399535	19.5476	1.49004e-05	1.78681e-05	1.76741e-05	1.38503e-05	1.69757e-05	1.10072e-05	0.656388	0.258078	9.38898	4.21176e-07	2.12373e-07	1.81193e-07	1.45471e-07	2.13122e-07	1.63296e-07	0.0180471	0.00932969	0.020316	27.3373	235108	454786	511963	-62.6627	0.0000000E+000	0.0000000E+000	0.0000000E+000	62.6627	0.0000000E+000	0.0000000E+000	0.0000000E+000	-62.6627	0.0000000E+000	0.0000000E+000	0.0000000E+000	-27.3373	0.0000000E+000	0.0000000E+000	0.0000000E+000	27.3373	1.93437	62.6627	-2.27426e-07
0.316193	119.474	94.8342	152.537	-38.4412	1022.96	0.440958	-4.44593e-05	5307.66	2051.55	3	40	0.00459823	3.0145e-05	0	-0.000982973	0.267218	0.221117	5.2435	7.62259e-06	5.83197e-06	3.28059e-06	2.84485e-06	3.0225e-06	4.23005e-06	0.837149	0.265314	1.27881	2.42924e-07	3.66271e-08	1.92588e-08	4.74742e-08	1.48093e-08	1.43408e-08	0.00513479	0.0040758	0.00655577	38.4412	2.05154e+06	2.58458e+06	3.29983e+06	-51.5588	0.0000000E+000	0.0000000E+000	0.0000000E+000	51.5588	0.0000000E+000	0.0000000E+000	0.0000000E+000	-51.5588	0.0000000E+000	0.0000000E+000	0.0000000E+000	-38.4412	0.0000000E+000	0.0000000E+000	0.0000000E+000	38.4412	1.25982	51.5587	1.75154e-06
0.0999518	195.564	167.299	257.36	-40.546	1235.56	0.44096	-1.56005e-05	9517.79	4022	3	41	0.00459304	1.78468e-05	0	-0.000982361	0.323859	0.185405	4.83049	5.60864e-06	8.4382e-06	5.67683e-06	4.75375e-06	4.36311e-06	3.55336e-06	0.830021	0.0956005	0.971667	1.44131e-07	5.86344e-09	9.12863e-09	2.9054e-08	9.07472e-09	6.2023e-09	0.00295261	0.00252588	0.00388561	40.546	4.022e+06	4.7015e+06	6.18713e+06	-49.454	0.0000000E+000	0.0000000E+000	0.0000000E+000	49.454	0.0000000E+000	0.0000000E+000	0.0000000E+000	-49.454	0.0000000E+000	0.0000000E+000	0.0000000E+000	-40.546	0.0000000E+000	0.0000000E+000	0.0000000E+000	40.546	1.16895	49.454	5.77853e-06