File: Python/Data/GoldElectrode/240322/Gold/240322-CVEIS-PostActivation-5mM_Fe2Fe3-1M_H2SO4-2000RPM-Ag_AgCl_BLF8-Au_RDE_01_CV_C15.mpt
EC-Lab ASCII FILE
Nb header lines : 60

Cyclic Voltammetry

Run on channel : 15 (SN 19485)
User :
Electrode connection : standard
Potential control : Ewe
Ewe ctrl range : min = -1.00 V, max = 1.00 V
Ewe,I filtering : <None>
Safety Limits :
	Do not start on E overload
Channel : Floating
Acquisition started on : 03/22/2024 12:00:59.571
Loaded Setting File :  C:\Data\mathias\GoldElectrode\240320-CVEIS_PostActivation-Fe2Fe3_5mM-HCl1M-0000RPM-Ag_AgCl_BLF8-Au_RDE.mps
Saved on :
	File : 240322-CVEIS-PostActivation-5mM_Fe2Fe3-1M_H2SO4-2000RPM-Ag_AgCl_BLF8-Au_RDE_01_CV_C15.mpr
	Directory : C:\Data\mathias\GoldElectrode\
	Host : 192.168.0.1
Device : VMP-300 (SN 0826)
Address : USB
EC-Lab for windows v11.52 (software)
Internet server v11.52 (firmware)
Command interpretor v11.52 (firmware)
Electrode material :
Initial state :
Electrolyte :
Comments :
Cable : special
Electrode surface area : 0.001 cm²
Characteristic mass : 0.001 g
Equivalent Weight : 0.000 g/eq.
Density : 0.000 g/cm3
Volume (V) : 0.001 cm³
Record EIS quality indicators
Cycle Definition : Charge/Discharge alternance
Ei (V)              0.000
vs.                 Eoc
dE/dt               20.000
dE/dt unit          mV/s
E1 (V)              0.700
vs.                 Ref
Step percent        50
N                   10
E range min (V)     -1.000
E range max (V)     1.000
I Range             Auto
I Range min         Unset
I Range max         Unset
I Range init        Unset
Bandwidth           8
E2 (V)              0.000
vs.                 Ref
nc cycles           1
Reverse Scan        1
Ef (V)              0.000
vs.                 Eoc

mode	ox/red	error	control changes	counter inc.	time/s	control/V	Ewe/V	<I>/mA	cycle number	(Q-Qo)/C	I Range	step time/s	P/W
2	1	0	0	0	0.000000000000000E+000	0.442167	0.441592	0.00753003	1	0.0000000E+000	42	0.000000000000000E+000	3.3252e-06
2	1	0	1	0	1.1682	0.465529	0.465117	0.101048	1	6.45315e-05	41	1.1544	4.69992e-05
2	1	0	1	0	2.3477	0.489119	0.488907	0.188765	1	0.000235981	40	2.3339	9.22885e-05
2	1	0	1	0	3.4972	0.512109	0.511826	0.27386	1	0.000502337	40	3.4834	0.000140169
2	1	0	1	0	4.6466	0.535098	0.534897	0.350512	1	0.000863094	40	4.6328	0.000187488
2	1	0	1	0	5.7961	0.558087	0.557831	0.410909	1	0.00130345	40	5.7823	0.000229218
2	1	0	1	0	6.9455	0.581076	0.580574	0.456921	1	0.00180426	40	6.9317	0.000265277
2	1	0	1	0	8.095	0.604065	0.603725	0.488	1	0.0023489	40	8.0812	0.000294618
2	1	0	1	0	9.2444	0.627054	0.62672	0.510392	1	0.00292405	40	9.2306	0.000319873
2	1	0	1	0	10.3939	0.650043	0.649835	0.523842	1	0.00352022	40	10.3801	0.000340411
2	1	0	1	0	11.5433	0.673032	0.672915	0.536201	1	0.00413075	40	11.5295	0.000360818
2	1	0	1	0	12.6928	0.696022	0.695658	0.543455	1	0.00475176	40	12.679	0.000378059
2	1	0	1	0	13.8054	0.681728	0.681459	0.540026	1	0.00535509	40	13.7916	0.000368006
2	1	0	1	0	14.9548	0.658739	0.658256	0.533358	1	0.00597214	40	14.941	0.000351086
2	1	0	1	0	16.1043	0.63575	0.635418	0.524181	1	0.00657942	40	16.0905	0.000333074
2	1	0	1	0	17.2537	0.612761	0.612488	0.509624	1	0.00717264	40	17.2399	0.000312139
2	1	0	1	0	18.4032	0.589772	0.589455	0.490966	1	0.00774692	40	18.3894	0.000289402
2	1	0	1	0	19.5526	0.566783	0.56662	0.464588	1	0.00829571	40	19.5388	0.000263245
2	1	0	1	0	20.7021	0.543794	0.543567	0.432126	1	0.00881145	40	20.6883	0.000234889
2	1	0	1	0	21.8516	0.520804	0.520415	0.385191	1	0.00928178	40	21.8378	0.000200459
2	1	0	1	0	23.001	0.497815	0.497521	0.313672	1	0.00968532	40	22.9872	0.000156058
2	1	0	1	0	24.1505	0.474826	0.474547	0.208832	1	0.00998848	40	24.1367	9.91004e-05
2	1	0	1	0	25.2999	0.451837	0.451398	0.0700313	1	0.0101509	40	25.2861	3.1612e-05
2	0	0	1	0	26.4794	0.428248	0.428014	-0.0909418	1	0.0101384	41	0.6497	-3.89243e-05
2	0	0	1	0	27.6588	0.404659	0.404396	-0.237302	1	0.00994187	40	1.8291	-9.59637e-05
2	0	0	1	0	28.8083	0.38167	0.381246	-0.350396	1	0.0096005	40	2.9786	-0.000133587
2	0	0	1	0	29.9577	0.358681	0.358209	-0.436293	1	0.00914601	40	4.128	-0.000156284
2	0	0	1	0	31.1072	0.335692	0.335445	-0.502796	1	0.00860407	40	5.2775	-0.00016866
2	0	0	1	0	32.2566	0.312703	0.312326	-0.555946	1	0.00799388	40	6.4269	-0.000173636
2	0	0	1	0	33.4061	0.289714	0.289442	-0.597973	1	0.00732863	40	7.5764	-0.000173078
2	0	0	1	0	34.5555	0.266725	0.266507	-0.631114	1	0.00662068	40	8.7258	-0.000168196
2	0	0	1	0	35.705	0.243736	0.243595	-0.655345	1	0.00588049	40	9.8753	-0.000159639
2	0	0	1	0	36.8544	0.220748	0.220489	-0.674004	1	0.005116	40	11.0247	-0.000148611
2	0	0	1	0	38.0039	0.197757	0.19736	-0.686936	1	0.00433348	40	12.1742	-0.000135574
2	0	0	1	0	39.1534	0.174768	0.174643	-0.696676	1	0.00353779	40	13.3237	-0.00012167
2	0	0	1	0	40.3028	0.151779	0.151385	-0.703134	1	0.00273214	40	14.4731	-0.000106444
2	0	0	1	0	41.4523	0.12879	0.128567	-0.706342	1	0.00191956	40	15.6226	-9.08125e-05
2	0	0	1	0	42.6017	0.105801	0.105505	-0.714995	1	0.00110128	40	16.772	-7.54359e-05
2	0	0	1	0	43.7512	0.0828118	0.0826519	-0.716109	1	0.000278048	40	17.9215	-5.91877e-05
2	0	0	1	0	44.9006	0.0598231	0.0595196	-0.720419	1	-0.000548338	40	19.0709	-4.2879e-05
2	0	0	1	0	46.0501	0.0368335	0.0367569	-0.722049	1	-0.00137701	40	20.2204	-2.65403e-05
2	0	0	1	0	47.1996	0.0138444	0.0136931	-0.723797	1	-0.00220841	40	21.3699	-9.91103e-06
2	0	0	1	1	48.2793	0.00774732	0.00772281	-0.724794	1	-0.00299078	40	22.4496	-5.59745e-06
2	0	0	1	1	49.4287	0.0307364	0.0304325	-0.719973	1	-0.00382011	40	23.599	-2.19106e-05
2	0	0	1	1	50.5782	0.0537255	0.0535422	-0.717904	1	-0.00464677	40	24.7485	-3.84382e-05
2	0	0	1	1	51.7276	0.0767133	0.0764021	-0.714853	1	-0.00547045	40	25.8979	-5.46163e-05
2	0	0	1	1	52.8771	0.0997038	0.0993742	-0.708511	1	-0.00628894	40	27.0474	-7.04077e-05
2	0	0	1	1	54.0266	0.122693	0.122448	-0.702301	1	-0.0071002	40	28.1969	-8.5995e-05
2	0	0	1	1	55.176	0.145682	0.145354	-0.694495	1	-0.00790318	40	29.3463	-0.000100948
2	0	0	1	1	56.3255	0.168671	0.168499	-0.684391	1	-0.00869578	40	30.4958	-0.00011532
2	0	0	1	1	57.4749	0.19166	0.191534	-0.671229	1	-0.00947431	40	31.6452	-0.000128563
2	0	0	1	1	58.6244	0.214649	0.214341	-0.653934	1	-0.0102353	40	32.7947	-0.000140165
2	0	0	1	1	59.7738	0.237639	0.237266	-0.632631	1	-0.0109739	40	33.9441	-0.000150102
2	0	0	1	1	60.9233	0.260628	0.260283	-0.603854	1	-0.0116847	40	35.0936	-0.000157173
2	0	0	1	1	62.0728	0.283617	0.283222	-0.567751	1	-0.012359	40	36.2431	-0.0001608
2	0	0	1	1	63.2222	0.306606	0.306322	-0.52034	1	-0.0129854	40	37.3925	-0.000159392
2	0	0	1	1	64.3717	0.329595	0.329248	-0.461545	1	-0.0135505	40	38.542	-0.000151963
2	0	0	1	1	65.5211	0.352584	0.352371	-0.390257	1	-0.0140406	40	39.6914	-0.000137515
2	0	0	1	1	66.6706	0.375573	0.37536	-0.306316	1	-0.0144414	40	40.8409	-0.000114979
2	0	0	1	1	67.82	0.398562	0.398226	-0.209198	1	-0.0147382	40	41.9903	-8.33083e-05
2	0	0	1	1	68.9695	0.421551	0.421177	-0.0986114	1	-0.0149158	40	43.1398	-4.15329e-05
2	1	0	1	1	70.104	0.444241	0.444057	0.0236741	2	-0.0149589	41	0.1912	1.05127e-05
2	1	0	1	1	71.2834	0.46783	0.467528	0.153029	2	-0.0148538	40	1.3706	7.15453e-05
2	1	0	1	1	72.4328	0.490817	0.490705	0.265477	2	-0.0146103	40	2.52	0.000130271
2	1	0	1	1	73.5823	0.513808	0.513626	0.352557	2	-0.0142513	40	3.6695	0.000181082
2	1	0	1	1	74.7318	0.536797	0.536507	0.411978	2	-0.0138086	40	4.819	0.000221029
2	1	0	1	1	75.8812	0.559786	0.559435	0.450934	2	-0.0133105	40	5.9684	0.000252268
2	1	0	1	1	77.0307	0.582775	0.582491	0.478972	2	-0.0127741	40	7.1179	0.000278997
2	1	0	1	1	78.1801	0.605764	0.605461	0.500789	2	-0.0122098	40	8.2673	0.000303208
2	1	0	1	1	79.3296	0.628753	0.628416	0.516697	2	-0.011624	40	9.4168	0.0003247
2	1	0	1	1	80.479	0.651742	0.651443	0.528865	2	-0.0110217	40	10.5662	0.000344525
2	1	0	1	1	81.6285	0.674732	0.67443	0.536728	2	-0.0104086	40	11.7157	0.000361986
2	1	0	1	1	82.778	0.697721	0.697388	0.543582	2	-0.00978687	40	12.8652	0.000379088
2	1	0	1	1	83.9055	0.679729	0.679379	0.540751	2	-0.00917594	40	13.9927	0.000367375
2	1	0	1	1	85.055	0.65674	0.656322	0.533482	2	-0.00855979	40	15.1422	0.000350136
2	1	0	1	1	86.2044	0.633751	0.633395	0.520719	2	-0.00795348	40	16.2916	0.000329821
2	1	0	1	1	87.3539	0.610762	0.610599	0.507794	2	-0.00736261	40	17.4411	0.000310058
2	1	0	1	1	88.5033	0.587773	0.587606	0.488745	2	-0.00679046	40	18.5905	0.000287189
2	1	0	1	1	89.6528	0.564784	0.564442	0.462722	2	-0.00624409	40	19.74	0.00026118
2	1	0	1	1	90.8022	0.541795	0.541569	0.428858	2	-0.00573155	40	20.8894	0.000232256
2	1	0	1	1	91.9517	0.518805	0.518542	0.380724	2	-0.00526499	40	22.0389	0.000197421
2	1	0	1	1	93.1012	0.495816	0.495739	0.30711	2	-0.00486748	40	23.1884	0.000152247
2	1	0	1	1	94.2506	0.472827	0.47241	0.199114	2	-0.00457375	40	24.3378	9.40634e-05
2	1	0	1	1	95.4001	0.449838	0.449632	0.0569253	2	-0.00442471	40	25.4873	2.55954e-05
2	0	0	1	1	96.5795	0.426249	0.426024	-0.104551	2	-0.00445331	41	0.7496	-4.45414e-05
2	0	0	1	1	97.759	0.40266	0.402355	-0.247925	2	-0.00466431	40	1.9291	-9.97538e-05
2	0	0	1	1	98.9084	0.379671	0.379367	-0.357324	2	-0.00501555	40	3.0785	-0.000135557
2	0	0	1	1	100.058	0.356682	0.356559	-0.440375	2	-0.00547651	40	4.228	-0.000157019
2	0	0	1	1	101.207	0.333693	0.333392	-0.50583	2	-0.00602208	40	5.3774	-0.000168639
2	0	0	1	1	102.357	0.310704	0.310374	-0.559253	2	-0.00663542	40	6.5269	-0.000173577
2	0	0	1	1	103.506	0.287715	0.287075	-0.59962	2	-0.00730269	40	7.6763	-0.000172136
2	0	0	1	1	104.656	0.264726	0.264373	-0.631972	2	-0.00801166	40	8.8258	-0.000167076
2	0	0	1	1	105.805	0.241736	0.241347	-0.656536	2	-0.00875329	40	9.9753	-0.000158453
2	0	0	1	1	106.955	0.218747	0.218407	-0.672562	2	-0.00951819	40	11.1247	-0.000146893
2	0	0	1	1	108.104	0.195758	0.195631	-0.68741	2	-0.0103008	40	12.2742	-0.000134478
2	0	0	1	1	109.253	0.172769	0.172381	-0.69651	2	-0.0110967	40	13.4236	-0.000120065
2	0	0	1	1	110.403	0.14978	0.149397	-0.704415	2	-0.0119019	40	14.5731	-0.000105237
2	0	0	1	1	111.552	0.126791	0.126274	-0.710678	2	-0.0127146	40	15.7225	-8.97401e-05
2	0	0	1	1	112.702	0.103802	0.103547	-0.714091	2	-0.013533	40	16.872	-7.39419e-05
2	0	0	1	1	113.851	0.0808127	0.0805652	-0.717905	2	-0.0143558	40	18.0214	-5.78382e-05
2	0	0	1	1	115.001	0.0578236	0.0575669	-0.720425	2	-0.0151815	40	19.1709	-4.14727e-05
2	0	0	1	1	116.15	0.0348345	0.0345004	-0.721683	2	-0.0160105	40	20.3204	-2.48983e-05
2	0	0	1	1	117.3	0.0118454	0.0114165	-0.724031	2	-0.016842	40	21.4698	-8.2659e-06
2	0	0	1	0	118.379	0.00974637	0.00954345	-0.723316	2	-0.0176237	40	22.5495	-6.90293e-06
2	0	0	1	0	119.529	0.0327355	0.0326107	-0.720633	2	-0.0184533	40	23.699	-2.35003e-05
2	0	0	1	0	120.678	0.0557259	0.0555584	-0.717427	2	-0.0192796	40	24.8485	-3.98591e-05
2	0	0	1	0	121.828	0.0787137	0.0784896	-0.714124	2	-0.0201017	40	25.9979	-5.60513e-05
2	0	0	1	0	122.977	0.101703	0.101415	-0.707769	2	-0.0209187	40	27.1474	-7.17785e-05
2	0	0	1	0	124.127	0.124692	0.124366	-0.702335	2	-0.0217285	40	28.2968	-8.73468e-05
2	0	0	1	0	125.276	0.147681	0.147268	-0.69374	2	-0.0225305	40	29.4463	-0.000102166
2	0	0	1	0	126.426	0.17067	0.170414	-0.681505	2	-0.0233212	40	30.5957	-0.000116138
2	0	0	1	0	127.575	0.193659	0.193306	-0.668657	2	-0.0240972	40	31.7452	-0.000129256
2	0	0	1	0	128.724	0.216648	0.216162	-0.65109	2	-0.0248555	40	32.8946	-0.000140741
2	0	0	1	0	129.874	0.239638	0.239443	-0.628472	2	-0.0255909	40	34.0441	-0.000150483
2	0	0	1	0	131.023	0.262625	0.262597	-0.599208	2	-0.0262969	40	35.1935	-0.00015735
2	0	0	1	0	132.173	0.285616	0.285315	-0.56246	2	-0.0269651	40	36.343	-0.000160478
2	0	0	1	0	133.322	0.308605	0.308428	-0.513931	2	-0.027584	40	37.4925	-0.000158511
2	0	0	1	0	134.472	0.331594	0.331074	-0.453699	2	-0.0281408	40	38.6419	-0.000150208
2	0	0	1	0	135.621	0.354583	0.35435	-0.380856	2	-0.0286213	40	39.7914	-0.000134956
2	0	0	1	0	136.771	0.377572	0.377432	-0.296471	2	-0.0290116	40	40.9408	-0.000111897
2	0	0	1	0	137.92	0.400561	0.400417	-0.199295	2	-0.0292973	40	42.0903	-7.98011e-05
2	0	0	1	0	139.07	0.42355	0.423494	-0.0883604	2	-0.0294634	40	43.2397	-3.74201e-05
2	1	0	0	0	139.912	0.440418	0.440069	0.00237539	2	-0.0294997	41	0.000000000000000E+000	1.04533e-06