File: Python/Data/GoldElectrode/240322/Gold/240322-CVEIS-Activation-5mM_Fe2Fe3-1M_H2SO4-0000RPM-Ag_AgCl_BLF8-Au_RDE_02_PEIS_C15.mpt
EC-Lab ASCII FILE
Nb header lines : 66

Potentio Electrochemical Impedance Spectroscopy

Run on channel : 15 (SN 19485)
User :
Electrode connection : standard
Potential control : Ewe
Ewe ctrl range : min = -2.50 V, max = 2.50 V
Ewe,I filtering : 50 kHz
Safety Limits :
	Do not start on E overload
Channel : Floating
Acquisition started on : 03/22/2024 10:02:07.151
Loaded Setting File :  C:\Data\mathias\GoldElectrode\240321-CVEIS-Activation-5mM_Fe2Fe3-1M_H2SO4-0000RPM-Ag_AgCl_BLF8-Au_RDE.mps
Saved on :
	File : 240322-CVEIS-Activation-5mM_Fe2Fe3-1M_H2SO4-0000RPM-Ag_AgCl_BLF8-Au_RDE_02_PEIS_C15.mpr
	Directory : C:\Data\mathias\GoldElectrode\
	Host : 192.168.0.1
Device : VMP-300 (SN 0826)
Address : USB
EC-Lab for windows v11.52 (software)
Internet server v11.52 (firmware)
Command interpretor v11.52 (firmware)
Electrode material :
Initial state :
Electrolyte :
Comments :
Cable : special
Electrode surface area : 0.001 cm²
Characteristic mass : 0.001 g
Equivalent Weight : 0.000 g/eq.
Density : 0.000 g/cm3
Volume (V) : 0.001 cm³
Record EIS quality indicators
Cycle Definition : Charge/Discharge alternance
Mode                Single sine
E (V)               0.0000
vs.                 Eoc
tE (h:m:s)          0:00:0.0000
record              0
dI                  0.000
unit dI             mA
dt (s)              0.000
fi                  100.000
unit fi             kHz
ff                  100.000
unit ff             Hz
Nd                  10
Points              per decade
spacing             Logarithmic
Va (mV)             5.0
pw                  0.10
Na                  2
corr                0
E range min (V)     -2.500
E range max (V)     2.500
I Range             Auto
Bandwidth           8
nc cycles           0
goto Ns'            0
nr cycles           0
inc. cycle          0

freq/Hz	Re(Z)/Ohm	-Im(Z)/Ohm	|Z|/Ohm	Phase(Z)/deg	time/s	<Ewe>/V	<I>/mA	Cs/µF	Cp/µF	cycle number	I Range	|Ewe|/V	|I|/A	Ns	(Q-Qo)/mA.h	THD Ewe/%	NSD Ewe/%	NSR Ewe/%	|Ewe h2|/V	|Ewe h3|/V	|Ewe h4|/V	|Ewe h5|/V	|Ewe h6|/V	|Ewe h7|/V	THD I/%	NSD I/%	NSR I/%	|I h2|/A	|I h3|/A	|I h4|/A	|I h5|/A	|I h6|/A	|I h7|/A	Re(Y)/Ohm-1	Im(Y)/Ohm-1	|Y|/Ohm-1	Phase(Y)/deg	Re(C)/nF	Im(C)/nF	|C|/nF	Phase(C)/deg	Re(M)	Im(M)	|M|	Phase(M)/deg	Re(Permittivity)	Im(Permittivity)	|Permittivity|	Phase(Permittivity)/deg	Re(Resistivity)/Ohm.cm	Im(Resistivity)/Ohm.cm	|Resistivity|/Ohm.cm	Phase(Resistivity)/deg	Re(Conductivity)/mS/cm	Im(Conductivity)/mS/cm	|Conductivity|/mS/cm	Phase(Conductivity)/deg	Tan(Delta)	Loss Angle(Delta)/deg	dq/mA.h
100004	2.87011	0.457477	2.90635	-9.05638	21.0577	0.44187	-0.202457	3.47884	0.0861944	1	37	0.00486676	0.00167453	0	-4.43347e-05	1.34983	0.719745	26.9784	2.29775e-05	2.98818e-05	3.30594e-05	6.69873e-06	2.18538e-05	2.9389e-05	0.542836	0.405119	10.3665	4.47724e-06	3.39753e-06	2.04207e-06	3.19524e-06	4.86896e-06	2.59746e-06	0.339785	0.0541595	0.344075	9.05638	86.1944	540.765	547.592	-80.9436	0.0000000E+000	0.0000000E+000	0.0000000E+000	80.9436	0.0000000E+000	0.0000000E+000	0.0000000E+000	-80.9436	0.0000000E+000	0.0000000E+000	0.0000000E+000	-9.05638	0.0000000E+000	0.0000000E+000	0.0000000E+000	9.05638	6.27379	80.9436	-4.43347e-05
63093.8	2.90915	0.6781	2.98713	-13.1209	22.6877	0.441878	-0.09935	3.71997	0.191698	1	37	0.00518045	0.00173426	0	-9.27137e-05	2.06176	0.714558	25.5015	8.63817e-05	1.44531e-05	2.01057e-05	3.05471e-05	3.28258e-05	2.03405e-05	0.457138	0.316514	10.2454	2.80641e-06	3.02966e-06	3.3633e-06	3.94638e-06	1.47486e-06	3.50172e-06	0.32603	0.0759951	0.334769	13.1209	191.699	822.414	844.46	-76.8791	0.0000000E+000	0.0000000E+000	0.0000000E+000	76.8791	0.0000000E+000	0.0000000E+000	0.0000000E+000	-76.8791	0.0000000E+000	0.0000000E+000	0.0000000E+000	-13.1209	0.0000000E+000	0.0000000E+000	0.0000000E+000	13.1209	4.29014	76.8791	-2.52414e-05
39814.1	2.9886	1.00731	3.15379	-18.6264	24.3177	0.441855	-0.105324	3.96844	0.404838	1	37	0.00518389	0.0016437	0	-0.000143726	1.42481	0.765033	25.7698	3.93071e-05	2.26438e-05	3.1217e-05	8.35845e-06	2.70057e-05	2.7825e-05	0.561937	0.0681351	10.7037	3.05539e-06	2.3068e-06	1.61306e-06	3.34439e-06	4.76523e-06	4.48153e-06	0.30047	0.101274	0.317079	18.6264	404.838	1201.12	1267.51	-71.3735	0.0000000E+000	0.0000000E+000	0.0000000E+000	71.3735	0.0000000E+000	0.0000000E+000	0.0000000E+000	-71.3735	0.0000000E+000	0.0000000E+000	0.0000000E+000	-18.6264	0.0000000E+000	0.0000000E+000	0.0000000E+000	18.6264	2.96691	71.3735	-2.52423e-05
25116.9	3.11219	1.49081	3.45083	-25.5955	25.9477	0.441886	-0.100634	4.25042	0.793286	1	37	0.00513446	0.00148789	0	-0.000190363	1.06907	0.79464	25.9742	1.77555e-05	2.61306e-05	3.06598e-05	2.36678e-05	8.11645e-06	1.945e-05	0.667663	0.332643	11.7949	4.54779e-06	1.95673e-06	4.45599e-06	4.38528e-06	4.4077e-06	2.00472e-06	0.261348	0.125192	0.289785	25.5955	793.286	1656.05	1836.24	-64.4045	0.0000000E+000	0.0000000E+000	0.0000000E+000	64.4045	0.0000000E+000	0.0000000E+000	0.0000000E+000	-64.4045	0.0000000E+000	0.0000000E+000	0.0000000E+000	-25.5955	0.0000000E+000	0.0000000E+000	0.0000000E+000	25.5955	2.08758	64.4045	-2.278e-05
15847.7	3.27954	2.23277	3.96745	-34.2478	27.5777	0.44183	-0.0976378	4.4979	1.42454	1	37	0.00509845	0.00128507	0	-0.000236748	1.00248	0.925425	26.1112	2.86673e-05	1.56883e-05	2.07863e-05	1.63553e-05	1.51895e-05	2.06881e-05	0.907861	0.403574	13.7292	4.40689e-06	3.28343e-06	4.19987e-06	4.01635e-06	5.60531e-06	4.59734e-06	0.208348	0.141848	0.252051	34.2478	1424.54	2092.4	2531.3	-55.7522	0.0000000E+000	0.0000000E+000	0.0000000E+000	55.7522	0.0000000E+000	0.0000000E+000	0.0000000E+000	-55.7522	0.0000000E+000	0.0000000E+000	0.0000000E+000	-34.2478	0.0000000E+000	0.0000000E+000	0.0000000E+000	34.2478	1.46882	55.7522	-2.33276e-05
10002.2	3.50889	3.35155	4.85234	-43.6862	29.3747	0.441848	-0.00675911	4.74764	2.26499	1	38	0.00490439	0.00101073	0	-0.000262564	1.29108	0.83414	26.2814	2.57249e-05	2.44019e-05	2.37888e-05	2.08869e-05	1.23825e-05	3.64323e-05	0.190106	0.0870949	2.94453	3.90871e-07	6.20698e-07	5.8938e-07	1.22218e-06	7.70253e-07	3.10014e-07	0.149028	0.142345	0.206086	43.6862	2264.99	2371.32	3279.23	-46.3138	0.0000000E+000	0.0000000E+000	0.0000000E+000	46.3138	0.0000000E+000	0.0000000E+000	0.0000000E+000	-46.3138	0.0000000E+000	0.0000000E+000	0.0000000E+000	-43.6862	0.0000000E+000	0.0000000E+000	0.0000000E+000	43.6862	1.04695	46.3138	-6.27288e-06
6307.74	3.88599	5.06086	6.38069	-52.4811	31.1228	0.441704	-0.00656175	4.98566	3.13643	1	38	0.00516132	0.000808896	0	-0.000265754	1.30329	1.22801	24.4889	1.87283e-05	4.41622e-05	2.16538e-05	9.04108e-06	2.51387e-05	1.4323e-05	0.279732	0.201591	3.63254	1.60069e-06	5.18896e-07	5.91911e-07	4.6888e-07	1.05813e-06	7.0648e-07	0.0954479	0.124305	0.156723	52.4811	3136.43	2408.31	3954.39	-37.5189	0.0000000E+000	0.0000000E+000	0.0000000E+000	37.5189	0.0000000E+000	0.0000000E+000	0.0000000E+000	-37.5189	0.0000000E+000	0.0000000E+000	0.0000000E+000	-52.4811	0.0000000E+000	0.0000000E+000	0.0000000E+000	52.4811	0.767851	37.5189	-1.72059e-06
3981.28	4.40637	7.62323	8.8051	-59.9713	32.6219	0.441728	-0.00634949	5.24395	3.93069	1	38	0.00496908	0.000564341	0	-0.00026806	2.08337	0.42177	26.5221	4.01397e-05	3.00136e-05	2.18764e-05	6.13379e-05	4.44747e-05	1.69201e-05	0.547167	0.167865	5.20385	2.7157e-06	1.00903e-06	4.86787e-07	6.86374e-07	3.3562e-07	4.82222e-07	0.0568345	0.0983265	0.113571	59.9713	3930.69	2272.01	4540.08	-30.0287	0.0000000E+000	0.0000000E+000	0.0000000E+000	30.0287	0.0000000E+000	0.0000000E+000	0.0000000E+000	-30.0287	0.0000000E+000	0.0000000E+000	0.0000000E+000	-59.9713	0.0000000E+000	0.0000000E+000	0.0000000E+000	59.9713	0.578018	30.0287	-1.10691e-06
2512.41	5.18422	11.4019	12.5252	-65.5497	34.1078	0.44173	-0.00608138	5.55586	4.60405	1	38	0.00452611	0.000361361	0	-0.00027052	1.3732	0.748475	28.7193	1.79959e-05	2.53966e-05	1.52543e-05	2.6684e-05	2.40997e-05	3.20595e-05	0.629825	0.314375	8.26958	1.75279e-06	6.92583e-07	1.00669e-06	4.44074e-07	5.66497e-07	2.0344e-07	0.0330458	0.0726793	0.0798392	65.5497	4604.05	2093.37	5057.62	-24.4503	0.0000000E+000	0.0000000E+000	0.0000000E+000	24.4503	0.0000000E+000	0.0000000E+000	0.0000000E+000	-24.4503	0.0000000E+000	0.0000000E+000	0.0000000E+000	-65.5497	0.0000000E+000	0.0000000E+000	0.0000000E+000	65.5497	0.454679	24.4503	-1.12422e-06
1584.49	6.48712	17.1679	18.3526	-69.3003	35.817	0.441759	-0.00529751	5.85077	5.11976	1	38	0.00479724	0.000261392	0	-0.000273994	1.09799	0.572635	27.2421	1.68325e-05	2.76653e-05	2.88052e-05	9.64731e-06	1.77946e-05	1.59753e-05	0.937826	0.338546	11.223	1.96751e-06	1.02911e-06	5.58831e-07	6.14194e-07	3.48082e-07	3.80335e-07	0.0192599	0.0509706	0.0544881	69.3003	5119.76	1934.57	5473.08	-20.6997	0.0000000E+000	0.0000000E+000	0.0000000E+000	20.6997	0.0000000E+000	0.0000000E+000	0.0000000E+000	-20.6997	0.0000000E+000	0.0000000E+000	0.0000000E+000	-69.3003	0.0000000E+000	0.0000000E+000	0.0000000E+000	69.3003	0.377863	20.6997	-1.40293e-06
999.682	8.64649	25.6244	27.0439	-71.354	37.304	0.441736	-0.00579837	6.21305	5.57794	1	38	0.00467781	0.000172971	0	-0.00027653	1.40596	0.81789	27.0417	8.63303e-06	1.01513e-05	1.69709e-05	2.3717e-05	2.66022e-05	4.79137e-05	1.03954	0.320448	17.4515	1.07253e-06	2.50031e-07	5.95359e-07	7.94338e-07	4.19297e-07	8.14324e-07	0.0118223	0.0350361	0.0369769	71.354	5577.94	1882.18	5886.94	-18.646	0.0000000E+000	0.0000000E+000	0.0000000E+000	18.646	0.0000000E+000	0.0000000E+000	0.0000000E+000	-18.646	0.0000000E+000	0.0000000E+000	0.0000000E+000	-71.354	0.0000000E+000	0.0000000E+000	0.0000000E+000	71.354	0.337432	18.646	-1.32634e-06
631.01	12.1808	38.509	40.3896	-72.4473	39.0416	0.441718	0.00114788	6.5497	5.95399	1	39	0.00490198	0.000121367	0	-0.000276537	1.47232	0.663602	26.9207	2.32208e-05	3.53542e-05	2.15401e-05	3.47692e-05	2.92198e-05	1.52684e-05	0.775064	0.293959	10.1143	6.63979e-07	3.61664e-07	3.21074e-07	3.76886e-07	2.07193e-07	8.50681e-08	0.00746685	0.0236061	0.0247589	72.4473	5953.99	1883.31	6244.75	-17.5527	0.0000000E+000	0.0000000E+000	0.0000000E+000	17.5527	0.0000000E+000	0.0000000E+000	0.0000000E+000	-17.5527	0.0000000E+000	0.0000000E+000	0.0000000E+000	-72.4473	0.0000000E+000	0.0000000E+000	0.0000000E+000	72.4473	0.31631	17.5527	1.77899e-07
398.089	17.4626	57.0669	59.679	-72.9858	40.5299	0.441711	0.00148821	7.00576	6.40593	1	39	0.00470996	7.89216e-05	0	-0.000276174	1.28701	1.05131	27.649	1.43909e-05	1.26399e-05	2.20222e-05	1.22777e-05	1.72001e-05	3.4454e-05	1.06543	0.392258	15.6082	4.43454e-07	2.8553e-07	4.18312e-08	4.3806e-07	2.29306e-07	3.86803e-07	0.00490306	0.0160229	0.0167563	72.9858	6405.93	1960.23	6699.13	-17.0142	0.0000000E+000	0.0000000E+000	0.0000000E+000	17.0142	0.0000000E+000	0.0000000E+000	0.0000000E+000	-17.0142	0.0000000E+000	0.0000000E+000	0.0000000E+000	-72.9858	0.0000000E+000	0.0000000E+000	0.0000000E+000	72.9858	0.306002	17.0142	2.16756e-07
251.206	27.449	83.9432	88.3171	-71.8925	42.015	0.441787	0.000783509	7.54752	6.81845	1	39	0.00464684	5.26153e-05	0	-0.000275779	1.4464	0.536535	27.8545	3.89125e-05	1.21537e-05	3.24513e-05	2.20377e-05	1.01133e-05	3.23959e-05	1.09798	0.68785	22.4338	3.43943e-07	1.92028e-07	1.45189e-07	2.53191e-07	1.12337e-07	2.34456e-07	0.00351914	0.0107621	0.0113228	71.8925	6818.45	2229.6	7173.73	-18.1075	0.0000000E+000	0.0000000E+000	0.0000000E+000	18.1075	0.0000000E+000	0.0000000E+000	0.0000000E+000	-18.1075	0.0000000E+000	0.0000000E+000	0.0000000E+000	-71.8925	0.0000000E+000	0.0000000E+000	0.0000000E+000	71.8925	0.326995	18.1075	1.36623e-07
158.529	41.21	123.428	130.126	-71.5369	43.5078	0.441752	0.000940626	8.13388	7.3181	1	39	0.00462666	3.55553e-05	0	-0.000275349	1.31945	0.742581	27.8209	3.55041e-05	2.52627e-05	1.8121e-05	1.4077e-05	2.28531e-05	2.09197e-05	1.64203	1.00315	35.2087	3.18684e-07	3.40795e-07	1.56199e-07	1.58889e-07	1.63708e-07	1.64522e-07	0.00243375	0.00728931	0.00768487	71.5369	7318.1	2443.36	7715.21	-18.4631	0.0000000E+000	0.0000000E+000	0.0000000E+000	18.4631	0.0000000E+000	0.0000000E+000	0.0000000E+000	-18.4631	0.0000000E+000	0.0000000E+000	0.0000000E+000	-71.5369	0.0000000E+000	0.0000000E+000	0.0000000E+000	71.5369	0.333879	18.4631	2.09701e-07
99.9682	67.5247	176.284	188.774	-69.0409	44.98	0.441735	0.00112961	9.03123	7.87568	1	39	0.00460729	2.44064e-05	0	-0.000275039	1.19237	0.947145	28.2527	2.95975e-05	1.74888e-05	2.00717e-05	2.23546e-05	2.13263e-05	1.47504e-05	1.97209	1.33398	49.9755	3.0503e-07	4.94543e-08	1.07274e-07	1.56564e-07	2.10184e-07	1.72424e-07	0.00189487	0.00494686	0.00529735	69.0409	7875.67	3016.75	8433.68	-20.9591	0.0000000E+000	0.0000000E+000	0.0000000E+000	20.9591	0.0000000E+000	0.0000000E+000	0.0000000E+000	-20.9591	0.0000000E+000	0.0000000E+000	0.0000000E+000	-69.0409	0.0000000E+000	0.0000000E+000	0.0000000E+000	69.0409	0.383046	20.9591	1.71061e-07