File: Python/Data/GoldElectrode/240322/Gold/240322-CVEIS-Activation-5mM_Fe2Fe3-1M_H2SO4-0000RPM-Ag_AgCl_BLF8-Au_RDE_06_PEIS_C15.mpt
EC-Lab ASCII FILE
Nb header lines : 66

Potentio Electrochemical Impedance Spectroscopy

Run on channel : 15 (SN 19485)
User :
Electrode connection : standard
Potential control : Ewe
Ewe ctrl range : min = -2.50 V, max = 2.50 V
Ewe,I filtering : 50 kHz
Safety Limits :
	Do not start on E overload
Channel : Floating
Acquisition started on : 03/22/2024 10:02:07.151
Loaded Setting File :  C:\Data\mathias\GoldElectrode\240321-CVEIS-Activation-5mM_Fe2Fe3-1M_H2SO4-0000RPM-Ag_AgCl_BLF8-Au_RDE.mps
Saved on :
	File : 240322-CVEIS-Activation-5mM_Fe2Fe3-1M_H2SO4-0000RPM-Ag_AgCl_BLF8-Au_RDE_06_PEIS_C15.mpr
	Directory : C:\Data\mathias\GoldElectrode\
	Host : 192.168.0.1
Device : VMP-300 (SN 0826)
Address : USB
EC-Lab for windows v11.52 (software)
Internet server v11.52 (firmware)
Command interpretor v11.52 (firmware)
Electrode material :
Initial state :
Electrolyte :
Comments :
Cable : special
Electrode surface area : 0.001 cm²
Characteristic mass : 0.001 g
Equivalent Weight : 0.000 g/eq.
Density : 0.000 g/cm3
Volume (V) : 0.001 cm³
Record EIS quality indicators
Cycle Definition : Charge/Discharge alternance
Mode                Single sine
E (V)               0.0000
vs.                 Eoc
tE (h:m:s)          0:00:0.0000
record              0
dI                  0.000
unit dI             mA
dt (s)              0.000
fi                  100.000
unit fi             kHz
ff                  100.000
unit ff             Hz
Nd                  10
Points              per decade
spacing             Logarithmic
Va (mV)             5.0
pw                  0.10
Na                  2
corr                0
E range min (V)     -2.500
E range max (V)     2.500
I Range             Auto
Bandwidth           8
nc cycles           0
goto Ns'            0
nr cycles           0
inc. cycle          0

freq/Hz	Re(Z)/Ohm	-Im(Z)/Ohm	|Z|/Ohm	Phase(Z)/deg	time/s	<Ewe>/V	<I>/mA	Cs/µF	Cp/µF	cycle number	I Range	|Ewe|/V	|I|/A	Ns	(Q-Qo)/mA.h	THD Ewe/%	NSD Ewe/%	NSR Ewe/%	|Ewe h2|/V	|Ewe h3|/V	|Ewe h4|/V	|Ewe h5|/V	|Ewe h6|/V	|Ewe h7|/V	THD I/%	NSD I/%	NSR I/%	|I h2|/A	|I h3|/A	|I h4|/A	|I h5|/A	|I h6|/A	|I h7|/A	Re(Y)/Ohm-1	Im(Y)/Ohm-1	|Y|/Ohm-1	Phase(Y)/deg	Re(C)/nF	Im(C)/nF	|C|/nF	Phase(C)/deg	Re(M)	Im(M)	|M|	Phase(M)/deg	Re(Permittivity)	Im(Permittivity)	|Permittivity|	Phase(Permittivity)/deg	Re(Resistivity)/Ohm.cm	Im(Resistivity)/Ohm.cm	|Resistivity|/Ohm.cm	Phase(Resistivity)/deg	Re(Conductivity)/mS/cm	Im(Conductivity)/mS/cm	|Conductivity|/mS/cm	Phase(Conductivity)/deg	Tan(Delta)	Loss Angle(Delta)/deg	dq/mA.h
100004	2.73344	0.139083	2.73698	-2.91282	776.338	0.441868	-0.0542549	11.4427	0.0295485	1	37	0.00485856	0.00177515	0	2.33077e-05	1.24832	0.722755	26.9375	3.40601e-05	2.04114e-05	1.83846e-05	2.34918e-05	2.62232e-05	1.33737e-05	0.486094	0.34701	9.85672	4.78229e-06	3.26057e-06	3.33002e-06	3.25658e-06	1.52487e-06	3.0642e-06	0.364894	0.0185666	0.365366	2.91282	29.5485	580.725	581.477	-87.0872	0.0000000E+000	0.0000000E+000	0.0000000E+000	87.0872	0.0000000E+000	0.0000000E+000	0.0000000E+000	-87.0872	0.0000000E+000	0.0000000E+000	0.0000000E+000	-2.91282	0.0000000E+000	0.0000000E+000	0.0000000E+000	2.91282	19.6533	87.0872	2.33077e-05
63093.8	2.73388	0.210975	2.74201	-4.4128	777.968	0.441868	-0.0720287	11.9564	0.0707827	1	37	0.0051867	0.00189157	0	-6.33148e-06	1.48609	0.608003	25.5358	3.56619e-05	2.20219e-05	2.11228e-05	2.26997e-05	4.17912e-05	3.6118e-05	0.451458	0.270907	9.05904	4.42576e-06	2.51178e-06	4.34674e-06	2.43111e-06	3.38024e-06	2.80331e-06	0.363615	0.0280604	0.364696	4.4128	70.7827	917.223	919.95	-85.5872	0.0000000E+000	0.0000000E+000	0.0000000E+000	85.5872	0.0000000E+000	0.0000000E+000	0.0000000E+000	-85.5872	0.0000000E+000	0.0000000E+000	0.0000000E+000	-4.4128	0.0000000E+000	0.0000000E+000	0.0000000E+000	4.4128	12.9583	85.5872	-1.37261e-05
39814.1	2.75538	0.313956	2.77321	-6.50042	779.599	0.441839	-0.0702792	12.7325	0.163188	1	37	0.00517383	0.00186565	0	-4.05801e-05	1.22535	0.791984	25.4322	3.50937e-05	1.81215e-05	3.53795e-05	1.74176e-05	1.80016e-05	1.97741e-05	0.515015	0.318912	9.43983	1.62107e-06	3.98698e-06	4.69906e-06	4.5038e-06	5.02179e-06	1.85342e-06	0.358275	0.040823	0.360593	6.50042	163.188	1432.19	1441.46	-83.4996	0.0000000E+000	0.0000000E+000	0.0000000E+000	83.4996	0.0000000E+000	0.0000000E+000	0.0000000E+000	-83.4996	0.0000000E+000	0.0000000E+000	0.0000000E+000	-6.50042	0.0000000E+000	0.0000000E+000	0.0000000E+000	6.50042	8.77631	83.4996	-1.81222e-05
25116.9	2.79044	0.461431	2.82833	-9.38955	781.23	0.441875	-0.0789893	13.7324	0.365511	1	37	0.00514961	0.00182072	0	-7.72188e-05	1.45971	1.65411	26.0417	3.26732e-05	3.16652e-05	2.94563e-05	3.00642e-05	3.2202e-05	2.33923e-05	0.688624	0.325228	9.7498	5.99222e-06	4.37027e-06	2.7588e-06	7.09046e-06	4.95831e-06	3.51673e-06	0.348828	0.0576828	0.353565	9.38955	365.511	2210.37	2240.39	-80.6105	0.0000000E+000	0.0000000E+000	0.0000000E+000	80.6105	0.0000000E+000	0.0000000E+000	0.0000000E+000	-80.6105	0.0000000E+000	0.0000000E+000	0.0000000E+000	-9.38955	0.0000000E+000	0.0000000E+000	0.0000000E+000	9.38955	6.04736	80.6105	-1.76264e-05
15847.7	2.85603	0.693847	2.9391	-13.655	782.86	0.441852	-0.0789707	14.4741	0.806658	1	37	0.00508167	0.00172899	0	-0.000114716	1.52096	0.610696	25.8744	1.91244e-05	1.20799e-05	2.01889e-05	3.95088e-05	1.55511e-05	5.48955e-05	0.449701	0.287354	10.1717	9.63836e-07	2.1586e-06	3.5421e-06	2.45594e-06	4.15927e-06	3.83185e-06	0.330623	0.0803221	0.34024	13.655	806.658	3320.38	3416.96	-76.345	0.0000000E+000	0.0000000E+000	0.0000000E+000	76.345	0.0000000E+000	0.0000000E+000	0.0000000E+000	-76.345	0.0000000E+000	0.0000000E+000	0.0000000E+000	-13.655	0.0000000E+000	0.0000000E+000	0.0000000E+000	13.655	4.11622	76.345	-1.89303e-05
10002.2	2.98925	0.985643	3.14755	-18.2489	784.49	0.441862	-0.0810366	16.1437	1.58306	1	37	0.00506668	0.00160972	0	-0.000153247	1.42568	0.755643	25.9687	2.24052e-05	4.67945e-05	2.96108e-05	1.85467e-05	9.45386e-06	3.19805e-05	0.509445	0.232474	11.086	1.38171e-06	3.65006e-06	2.48053e-06	3.20381e-06	3.57701e-06	3.66544e-06	0.301728	0.0994887	0.317707	18.2489	1583.06	4801.08	5055.34	-71.7511	0.0000000E+000	0.0000000E+000	0.0000000E+000	71.7511	0.0000000E+000	0.0000000E+000	0.0000000E+000	-71.7511	0.0000000E+000	0.0000000E+000	0.0000000E+000	-18.2489	0.0000000E+000	0.0000000E+000	0.0000000E+000	18.2489	3.03279	71.7511	-1.76325e-05
6307.74	3.17629	1.46961	3.49979	-24.8291	786.242	0.441753	-0.0793988	17.169	3.02736	1	37	0.00504573	0.00144172	0	-0.000191664	1.48877	0.730451	25.2617	1.00869e-05	3.96776e-05	1.29187e-05	2.80421e-05	3.30719e-05	3.51816e-05	0.795349	0.450722	12.2302	3.728e-06	3.36005e-06	4.14996e-06	4.88218e-06	3.5579e-06	6.66164e-06	0.25932	0.119982	0.285731	24.8291	3027.36	6543.07	7209.49	-65.1709	0.0000000E+000	0.0000000E+000	0.0000000E+000	65.1709	0.0000000E+000	0.0000000E+000	0.0000000E+000	-65.1709	0.0000000E+000	0.0000000E+000	0.0000000E+000	-24.8291	0.0000000E+000	0.0000000E+000	0.0000000E+000	24.8291	2.16132	65.1709	-1.88958e-05
3981.28	3.54376	2.13016	4.13471	-31.0102	787.997	0.441739	-0.00341879	18.7666	4.98104	1	38	0.00537435	0.00129981	0	-0.000210724	1.73563	0.773014	23.6285	2.84055e-05	1.60135e-05	1.88597e-05	7.4964e-05	1.38063e-05	2.86224e-05	0.214023	0.144136	2.29822	1.77782e-06	7.86074e-07	3.52343e-07	1.33297e-06	7.93958e-07	9.33221e-07	0.207288	0.124601	0.241855	31.0102	4981.04	8286.52	9668.36	-58.9898	0.0000000E+000	0.0000000E+000	0.0000000E+000	58.9898	0.0000000E+000	0.0000000E+000	0.0000000E+000	-58.9898	0.0000000E+000	0.0000000E+000	0.0000000E+000	-31.0102	0.0000000E+000	0.0000000E+000	0.0000000E+000	31.0102	1.66361	58.9898	-4.52994e-06
2512.41	4.19873	2.91232	5.10989	-34.7459	789.705	0.44177	-0.00437956	21.7516	7.06555	1	38	0.00514984	0.00100782	0	-0.000212868	1.20229	0.522584	25.1931	2.36687e-05	1.4094e-05	2.16233e-05	2.8765e-05	1.82694e-05	3.58113e-05	0.190556	0.115355	3.03506	9.78673e-07	8.86572e-07	3.9694e-07	5.26947e-07	1.07624e-06	5.53146e-07	0.160803	0.111536	0.195699	34.7459	7065.55	10186.5	12397	-55.2541	0.0000000E+000	0.0000000E+000	0.0000000E+000	55.2541	0.0000000E+000	0.0000000E+000	0.0000000E+000	-55.2541	0.0000000E+000	0.0000000E+000	0.0000000E+000	-34.7459	0.0000000E+000	0.0000000E+000	0.0000000E+000	34.7459	1.44171	55.2541	-6.78313e-07
1584.49	5.21339	3.76182	6.4289	-35.813	791.193	0.441714	-0.00453224	26.7013	9.14228	1	38	0.00500647	0.000778744	0	-0.000215927	1.05318	0.693925	26.0908	2.30302e-05	2.86766e-05	2.1861e-05	1.08041e-05	1.23272e-05	1.7383e-05	0.367678	0.131093	3.81578	1.99438e-06	1.027e-06	1.13281e-06	9.39805e-07	5.54906e-07	5.61247e-07	0.126138	0.0910174	0.155548	35.813	9142.28	12670	15624	-54.187	0.0000000E+000	0.0000000E+000	0.0000000E+000	54.187	0.0000000E+000	0.0000000E+000	0.0000000E+000	-54.187	0.0000000E+000	0.0000000E+000	0.0000000E+000	-35.813	0.0000000E+000	0.0000000E+000	0.0000000E+000	35.813	1.38587	54.187	-1.53001e-06
999.682	6.61717	4.495	7.9995	-34.188	792.679	0.441733	-0.00481339	35.4183	11.1831	1	38	0.00488535	0.000610707	0	-0.000218009	1.39261	0.387723	26.3305	2.97955e-05	2.37095e-05	2.19473e-05	2.90048e-05	2.15668e-05	3.04526e-05	0.464021	0.196927	4.92704	2.45252e-06	8.93765e-07	4.43586e-07	4.74106e-07	2.79165e-07	7.70763e-07	0.103406	0.0702432	0.125008	34.188	11183.1	16462.8	19901.9	-55.812	0.0000000E+000	0.0000000E+000	0.0000000E+000	55.812	0.0000000E+000	0.0000000E+000	0.0000000E+000	-55.812	0.0000000E+000	0.0000000E+000	0.0000000E+000	-34.188	0.0000000E+000	0.0000000E+000	0.0000000E+000	34.188	1.47212	55.812	-1.06811e-06
631.01	8.25221	4.96634	9.63138	-31.0403	794.164	0.441776	-0.00471471	50.7864	13.5034	1	38	0.00482706	0.000501181	0	-0.000219178	1.54064	0.797936	26.2952	1.83767e-05	2.26186e-05	4.28194e-05	1.41743e-05	1.78962e-05	3.6055e-05	0.613672	0.186002	5.89692	2.0615e-06	1.06167e-06	6.21961e-07	9.51586e-07	1.2933e-06	5.25874e-07	0.0889597	0.0535377	0.103827	31.0403	13503.4	22437.6	26187.6	-58.9597	0.0000000E+000	0.0000000E+000	0.0000000E+000	58.9597	0.0000000E+000	0.0000000E+000	0.0000000E+000	-58.9597	0.0000000E+000	0.0000000E+000	0.0000000E+000	-31.0403	0.0000000E+000	0.0000000E+000	0.0000000E+000	31.0403	1.66163	58.9597	-1.56448e-07
398.089	9.84666	5.3519	11.2071	-28.5251	795.653	0.44173	-0.00512248	74.702	17.0357	1	38	0.00479261	0.00042764	0	-0.000220112	1.56685	0.902649	26.3828	1.34006e-05	2.21238e-05	1.61828e-05	4.85054e-05	2.42679e-05	3.42506e-05	0.700147	0.150891	6.93831	2.25271e-06	6.53615e-07	7.1404e-07	1.29144e-06	4.1266e-07	7.93943e-07	0.0783973	0.0426108	0.089229	28.5251	17035.7	31343	35673.5	-61.4749	0.0000000E+000	0.0000000E+000	0.0000000E+000	61.4749	0.0000000E+000	0.0000000E+000	0.0000000E+000	-61.4749	0.0000000E+000	0.0000000E+000	0.0000000E+000	-28.5251	0.0000000E+000	0.0000000E+000	0.0000000E+000	28.5251	1.83984	61.4749	-5.49334e-07
251.206	11.4326	5.63545	12.746	-26.2401	797.138	0.441745	-0.00380796	112.425	21.977	1	38	0.00476276	0.000373666	0	-0.000220991	1.28214	0.774567	26.5683	1.81961e-05	2.23178e-05	1.92148e-05	2.78782e-05	2.40295e-05	2.57273e-05	0.725529	0.229821	7.87555	2.19901e-06	7.5218e-07	6.29953e-07	7.28879e-07	6.1638e-07	6.26707e-07	0.0703708	0.0346879	0.0784557	26.2401	21977	44584.4	49706.7	-63.7599	0.0000000E+000	0.0000000E+000	0.0000000E+000	63.7599	0.0000000E+000	0.0000000E+000	0.0000000E+000	-63.7599	0.0000000E+000	0.0000000E+000	0.0000000E+000	-26.2401	0.0000000E+000	0.0000000E+000	0.0000000E+000	26.2401	2.02868	63.7599	-1.94072e-07
158.529	13.034	6.11321	14.3964	-25.1276	798.63	0.441773	-0.00367204	164.226	29.6125	1	38	0.00475952	0.000330606	0	-0.000223124	1.15692	0.593484	26.674	1.94261e-05	1.95452e-05	2.33955e-05	1.86363e-05	1.63615e-05	2.92511e-05	0.735807	0.199499	9.00349	2.05057e-06	7.94721e-07	4.0393e-07	4.93956e-07	6.58373e-07	2.17509e-07	0.0628884	0.029496	0.069462	25.1276	29612.5	63136.7	69736.3	-64.8724	0.0000000E+000	0.0000000E+000	0.0000000E+000	64.8724	0.0000000E+000	0.0000000E+000	0.0000000E+000	-64.8724	0.0000000E+000	0.0000000E+000	0.0000000E+000	-25.1276	0.0000000E+000	0.0000000E+000	0.0000000E+000	25.1276	2.1321	64.8724	-1.28286e-06
99.9682	14.675	6.83665	16.1894	-24.9794	800.103	0.441768	-0.0038452	232.871	41.5279	1	38	0.00475467	0.000293691	0	-0.000224437	1.43962	0.417822	26.5539	2.99732e-05	2.30682e-05	1.97668e-05	1.73904e-05	2.87265e-05	2.9218e-05	0.793477	0.21184	10.1249	1.73713e-06	2.28542e-07	6.71802e-07	8.00642e-07	6.48934e-07	5.88675e-07	0.055991	0.0260845	0.0617688	24.9794	41527.9	89140.8	98339.4	-65.0206	0.0000000E+000	0.0000000E+000	0.0000000E+000	65.0206	0.0000000E+000	0.0000000E+000	0.0000000E+000	-65.0206	0.0000000E+000	0.0000000E+000	0.0000000E+000	-24.9794	0.0000000E+000	0.0000000E+000	0.0000000E+000	24.9794	2.14652	65.0206	-8.69808e-07