File: Python/Data/GoldElectrode/240322/Gold/240322-CVEIS-PostActivation-5mM_Fe2Fe3-1M_H2SO4-0225RPM-Ag_AgCl_BLF8-Au_RDE_01_CV_C15.mpt
EC-Lab ASCII FILE
Nb header lines : 60

Cyclic Voltammetry

Run on channel : 15 (SN 19485)
User :
Electrode connection : standard
Potential control : Ewe
Ewe ctrl range : min = -1.00 V, max = 1.00 V
Ewe,I filtering : <None>
Safety Limits :
	Do not start on E overload
Channel : Floating
Acquisition started on : 03/22/2024 11:37:10.055
Loaded Setting File :  C:\Data\mathias\GoldElectrode\240320-CVEIS_PostActivation-Fe2Fe3_5mM-HCl1M-0000RPM-Ag_AgCl_BLF8-Au_RDE.mps
Saved on :
	File : 240322-CVEIS-PostActivation-5mM_Fe2Fe3-1M_H2SO4-0225RPM-Ag_AgCl_BLF8-Au_RDE_01_CV_C15.mpr
	Directory : C:\Data\mathias\GoldElectrode\
	Host : 192.168.0.1
Device : VMP-300 (SN 0826)
Address : USB
EC-Lab for windows v11.52 (software)
Internet server v11.52 (firmware)
Command interpretor v11.52 (firmware)
Electrode material :
Initial state :
Electrolyte :
Comments :
Cable : special
Electrode surface area : 0.001 cm²
Characteristic mass : 0.001 g
Equivalent Weight : 0.000 g/eq.
Density : 0.000 g/cm3
Volume (V) : 0.001 cm³
Record EIS quality indicators
Cycle Definition : Charge/Discharge alternance
Ei (V)              0.000
vs.                 Eoc
dE/dt               20.000
dE/dt unit          mV/s
E1 (V)              0.700
vs.                 Ref
Step percent        50
N                   10
E range min (V)     -1.000
E range max (V)     1.000
I Range             Auto
I Range min         Unset
I Range max         Unset
I Range init        Unset
Bandwidth           8
E2 (V)              0.000
vs.                 Ref
nc cycles           1
Reverse Scan        1
Ef (V)              0.000
vs.                 Eoc

mode	ox/red	error	control changes	counter inc.	time/s	control/V	Ewe/V	<I>/mA	cycle number	(Q-Qo)/C	I Range	step time/s	P/W
2	0	0	0	0	0.000000000000000E+000	0.441167	0.440496	-0.000787906	1	0.0000000E+000	43	0.000000000000000E+000	-3.4707e-07
2	1	0	1	0	1.2232	0.465631	0.465038	0.104474	1	8.01332e-05	41	1.1794	4.85844e-05
2	1	0	1	0	2.4277	0.489719	0.48948	0.145136	1	0.000233784	40	2.3839	7.10414e-05
2	1	0	1	0	3.6021	0.513208	0.513013	0.165154	1	0.000418566	40	3.5583	8.47259e-05
2	1	0	1	0	4.7766	0.536697	0.536347	0.174588	1	0.000619911	40	4.7328	9.36398e-05
2	1	0	1	0	5.951	0.560186	0.559902	0.179088	1	0.000829294	40	5.9072	0.000100272
2	1	0	1	0	7.1254	0.583674	0.583461	0.181371	1	0.0010427	40	7.0816	0.000105823
2	1	0	1	0	8.2999	0.607164	0.606876	0.183573	1	0.00125874	40	8.2561	0.000111406
2	1	0	1	0	9.4743	0.630652	0.630242	0.184252	1	0.00147623	40	9.4305	0.000116123
2	1	0	1	0	10.6488	0.654141	0.653781	0.185419	1	0.00169463	40	10.605	0.000121223
2	1	0	1	0	11.8232	0.67763	0.677209	0.186132	1	0.00191409	40	11.7794	0.00012605
2	1	0	1	0	12.9558	0.69972	0.699404	0.187661	1	0.00212602	40	12.912	0.000131251
2	1	0	1	0	14.1302	0.676231	0.675984	0.186672	1	0.00234467	40	14.0864	0.000126187
2	1	0	1	0	15.3047	0.652742	0.652468	0.186013	1	0.0025623	40	15.2609	0.000121368
2	1	0	1	0	16.4791	0.629253	0.62891	0.1852	1	0.00277871	40	16.4353	0.000116474
2	1	0	1	0	17.6536	0.605764	0.605496	0.183622	1	0.00299364	40	17.6098	0.000111182
2	1	0	1	0	18.828	0.582275	0.581877	0.181152	1	0.00320601	40	18.7842	0.000105408
2	1	0	1	0	20.0025	0.558786	0.558613	0.176592	1	0.00341437	40	19.9587	9.86468e-05
2	1	0	1	0	21.1769	0.535298	0.534884	0.167255	1	0.00361515	40	21.1331	8.94623e-05
2	1	0	1	0	22.3514	0.511808	0.511504	0.149774	1	0.00380111	40	22.3076	7.66102e-05
2	1	0	1	0	23.5258	0.48832	0.487862	0.11473	1	0.00395741	40	23.482	5.59725e-05
2	1	0	1	0	24.7002	0.464831	0.464506	0.0526234	1	0.00405768	40	24.6564	2.44439e-05
2	0	0	1	0	25.9047	0.440742	0.440449	-0.0378171	1	0.00406804	41	0.4498	-1.66565e-05
2	0	0	1	0	27.1091	0.416654	0.41629	-0.125369	1	0.00396718	40	1.6542	-5.21898e-05
2	0	0	1	0	28.2835	0.393165	0.392782	-0.182037	1	0.00378258	40	2.8286	-7.15007e-05
2	0	0	1	0	29.458	0.369676	0.369427	-0.210629	1	0.0035492	40	4.0031	-7.78122e-05
2	0	0	1	0	30.6324	0.346187	0.345893	-0.224507	1	0.00329187	40	5.1775	-7.76555e-05
2	0	0	1	0	31.8069	0.322698	0.322407	-0.232494	1	0.0030224	40	6.352	-7.49579e-05
2	0	0	1	0	32.9813	0.299209	0.298863	-0.237266	1	0.00274566	40	7.5264	-7.09099e-05
2	0	0	1	0	34.1558	0.27572	0.275322	-0.240172	1	0.0024648	40	8.7009	-6.61245e-05
2	0	0	1	0	35.3302	0.252232	0.25186	-0.24214	1	0.00218098	40	9.8753	-6.09853e-05
2	0	0	1	0	36.5046	0.228744	0.228363	-0.243057	1	0.00189586	40	11.0497	-5.55052e-05
2	0	0	1	0	37.6791	0.205254	0.205038	-0.244203	1	0.00160936	40	12.2242	-5.0071e-05
2	0	0	1	0	38.8535	0.181765	0.181506	-0.244329	1	0.00132204	40	13.3986	-4.43473e-05
2	0	0	1	0	40.028	0.158276	0.157906	-0.244861	1	0.00103472	40	14.5731	-3.86649e-05
2	0	0	1	0	41.2024	0.134787	0.134515	-0.245497	1	0.000746564	40	15.7475	-3.3023e-05
2	0	0	1	0	42.3769	0.111298	0.111138	-0.24527	1	0.000458191	40	16.922	-2.72589e-05
2	0	0	1	0	43.5513	0.0878094	0.0874318	-0.24562	1	0.000169815	40	18.0964	-2.1475e-05
2	0	0	1	0	44.7258	0.0643205	0.0640932	-0.245987	1	-0.000119244	40	19.2709	-1.57661e-05
2	0	0	1	0	45.9002	0.0408317	0.0405184	-0.245456	1	-0.000407926	40	20.4453	-9.94551e-06
2	0	0	1	0	47.0746	0.0173441	0.0168928	-0.246216	1	-0.000696855	40	21.6197	-4.15929e-06
2	0	0	1	1	48.1793	0.00474874	0.00478798	-0.245449	1	-0.000968734	40	22.7244	-1.1752e-06
2	0	0	1	1	49.3538	0.0282376	0.0279992	-0.245643	1	-0.00125679	40	23.8989	-6.87781e-06
2	0	0	1	1	50.5282	0.0517265	0.0514662	-0.245086	1	-0.00154477	40	25.0733	-1.26136e-05
2	0	0	1	1	51.7027	0.0752154	0.0749447	-0.245013	1	-0.00183229	40	26.2478	-1.83624e-05
2	0	0	1	1	52.8771	0.0987043	0.0983702	-0.244939	1	-0.00211988	40	27.4222	-2.40947e-05
2	0	0	1	1	54.0516	0.122193	0.121675	-0.244257	1	-0.00240686	40	28.5967	-2.972e-05
2	0	0	1	1	55.226	0.145682	0.145462	-0.244518	1	-0.0026938	40	29.7711	-3.55681e-05
2	0	0	1	1	56.4004	0.169169	0.168907	-0.243742	1	-0.0029805	40	30.9455	-4.11698e-05
2	0	0	1	1	57.5749	0.19266	0.19236	-0.243511	1	-0.00326624	40	32.12	-4.68419e-05
2	0	0	1	1	58.7493	0.216149	0.215822	-0.242904	1	-0.0035518	40	33.2944	-5.24241e-05
2	0	0	1	1	59.9238	0.239638	0.239462	-0.241173	1	-0.00383571	40	34.4689	-5.77517e-05
2	0	0	1	1	61.0982	0.263126	0.262847	-0.239964	1	-0.0041178	40	35.6433	-6.30739e-05
2	0	0	1	1	62.2727	0.286615	0.286423	-0.236701	1	-0.00439757	40	36.8178	-6.77967e-05
2	0	0	1	1	63.4471	0.310104	0.309828	-0.231172	1	-0.004672	40	37.9922	-7.16237e-05
2	0	0	1	1	64.6216	0.333593	0.333268	-0.222058	1	-0.00493809	40	39.1667	-7.40048e-05
2	0	0	1	1	65.796	0.357082	0.356857	-0.202417	1	-0.00518777	40	40.3411	-7.22339e-05
2	0	0	1	1	66.9704	0.380569	0.380173	-0.165526	1	-0.00540502	40	41.5155	-6.29287e-05
2	0	0	1	1	68.1449	0.40406	0.403793	-0.100653	1	-0.00556347	40	42.69	-4.0643e-05
2	0	0	1	1	69.3493	0.428148	0.428131	-0.00802322	1	-0.00563011	41	43.8944	-3.43499e-06
2	1	0	1	1	70.4838	0.450838	0.450517	0.0757739	2	-0.00558981	41	1.0095	3.41374e-05
2	1	0	1	1	71.6882	0.474926	0.474607	0.133392	2	-0.00545977	40	2.2139	6.33086e-05
2	1	0	1	1	72.8627	0.498415	0.498021	0.161206	2	-0.00528367	40	3.3884	8.02842e-05
2	1	0	1	1	74.0371	0.521904	0.521499	0.172915	2	-0.00508515	40	4.5628	9.01752e-05
2	1	0	1	1	75.2116	0.545393	0.545062	0.178258	2	-0.00487673	40	5.7373	9.71615e-05
2	1	0	1	1	76.386	0.568882	0.568586	0.180863	2	-0.00466355	40	6.9117	0.000102836
2	1	0	1	1	77.5604	0.592371	0.592112	0.182155	2	-0.00444833	40	8.0861	0.000107856
2	1	0	1	1	78.7349	0.615859	0.615542	0.183613	2	-0.00423119	40	9.2606	0.000113021
2	1	0	1	1	79.9093	0.639348	0.639124	0.184209	2	-0.0040134	40	10.435	0.000117732
2	1	0	1	1	81.0838	0.662837	0.662492	0.185735	2	-0.00379466	40	11.6095	0.000123048
2	1	0	1	1	82.2582	0.686326	0.685882	0.186069	2	-0.00357501	40	12.7839	0.000127621
2	1	0	1	1	83.4058	0.690724	0.690497	0.186507	2	-0.00336109	40	13.9315	0.000128783
2	1	0	1	1	84.5802	0.667235	0.666952	0.186358	2	-0.00314318	40	15.1059	0.000124292
2	1	0	1	1	85.7547	0.643746	0.643443	0.185321	2	-0.00292606	40	16.2804	0.000119243
2	1	0	1	1	86.9291	0.620257	0.619934	0.184731	2	-0.00271041	40	17.4548	0.000114521
2	1	0	1	1	88.1036	0.596769	0.59646	0.182936	2	-0.00249636	40	18.6293	0.000109114
2	1	0	1	1	89.278	0.57328	0.573027	0.179282	2	-0.00228542	40	19.8037	0.000102733
2	1	0	1	1	90.4524	0.549792	0.549564	0.173971	2	-0.00207939	40	20.9781	9.5608e-05
2	1	0	1	1	91.6269	0.526302	0.525926	0.1621	2	-0.00188276	40	22.1526	8.52528e-05
2	1	0	1	1	92.8013	0.502813	0.502482	0.139236	2	-0.00170556	40	23.327	6.99637e-05
2	1	0	1	1	93.9758	0.479324	0.478997	0.0949696	2	-0.00156649	40	24.5015	4.54901e-05
2	1	0	1	1	95.1802	0.455235	0.454868	0.0184575	2	-0.00149572	41	25.7059	8.39573e-06
2	0	0	1	1	96.3547	0.431747	0.431243	-0.0734028	2	-0.00152781	41	0.8996	-3.16545e-05
2	0	0	1	1	97.5591	0.407658	0.407481	-0.151592	2	-0.00166677	40	2.104	-6.17708e-05
2	0	0	1	1	98.7335	0.384169	0.383944	-0.195469	2	-0.00187431	40	3.2784	-7.50493e-05
2	0	0	1	1	99.908	0.36068	0.360361	-0.216581	2	-0.00211871	40	4.4529	-7.80474e-05
2	0	0	1	1	101.082	0.337191	0.336768	-0.227888	2	-0.00238114	40	5.6273	-7.67454e-05
2	0	0	1	1	102.257	0.313702	0.313215	-0.234155	2	-0.00265372	40	6.8018	-7.33408e-05
2	0	0	1	1	103.431	0.290214	0.290033	-0.238373	2	-0.00293164	40	7.9762	-6.91359e-05
2	0	0	1	1	104.606	0.266724	0.266329	-0.241252	2	-0.00321386	40	9.1507	-6.42523e-05
2	0	0	1	1	105.78	0.243236	0.242909	-0.241796	2	-0.00349788	40	10.3251	-5.87344e-05
2	0	0	1	1	106.955	0.219747	0.219452	-0.243666	2	-0.00378333	40	11.4995	-5.34732e-05
2	0	0	1	1	108.129	0.196258	0.196061	-0.24403	2	-0.00407025	40	12.674	-4.78448e-05
2	0	0	1	1	109.303	0.172769	0.172346	-0.244284	2	-0.00435698	40	13.8484	-4.21014e-05
2	0	0	1	1	110.478	0.14928	0.148952	-0.245414	2	-0.00464468	40	15.0229	-3.65549e-05
2	0	0	1	1	111.652	0.125791	0.125558	-0.245036	2	-0.00493288	40	16.1973	-3.07663e-05
2	0	0	1	1	112.827	0.102303	0.102069	-0.245368	2	-0.00522108	40	17.3718	-2.50445e-05
2	0	0	1	1	114.001	0.0788137	0.0785763	-0.245754	2	-0.0055099	40	18.5462	-1.93104e-05
2	0	0	1	1	115.176	0.0553239	0.0549617	-0.245771	2	-0.00579848	40	19.7207	-1.3508e-05
2	0	0	1	1	116.35	0.0318359	0.0312332	-0.24596	2	-0.00608751	40	20.8951	-7.68212e-06
2	0	0	1	1	117.525	0.00834703	0.00823053	-0.245876	2	-0.00637646	40	22.0695	-2.02369e-06
2	0	0	1	0	118.629	0.0137445	0.0134249	-0.24548	2	-0.00664768	40	23.1742	-3.29555e-06
2	0	0	1	0	119.804	0.0372334	0.0370442	-0.244979	2	-0.00693569	40	24.3487	-9.07504e-06
2	0	0	1	0	120.978	0.0607222	0.0604632	-0.244986	2	-0.00722305	40	25.5231	-1.48127e-05
2	0	0	1	0	122.153	0.0842111	0.0838789	-0.245204	2	-0.00751076	40	26.6976	-2.05675e-05
2	0	0	1	0	123.327	0.1077	0.107525	-0.244259	2	-0.00779783	40	27.872	-2.6264e-05
2	0	0	1	0	124.502	0.131189	0.130812	-0.244654	2	-0.00808475	40	29.0465	-3.20037e-05
2	0	0	1	0	125.676	0.154678	0.154608	-0.24383	2	-0.00837161	40	30.2209	-3.7698e-05
2	0	0	1	0	126.85	0.178167	0.177806	-0.243163	2	-0.00865715	40	31.3953	-4.32358e-05
2	0	0	1	0	128.025	0.201656	0.20133	-0.243456	2	-0.00894278	40	32.5698	-4.9015e-05
2	0	0	1	0	129.199	0.225144	0.22493	-0.241574	2	-0.0092272	40	33.7442	-5.43372e-05
2	0	0	1	0	130.374	0.248633	0.248269	-0.240514	2	-0.00951004	40	34.9187	-5.97122e-05
2	0	0	1	0	131.548	0.272122	0.271904	-0.238501	2	-0.00979137	40	36.0931	-6.48492e-05
2	0	0	1	0	132.723	0.295611	0.295281	-0.234723	2	-0.0100688	40	37.2676	-6.93093e-05
2	0	0	1	0	133.897	0.3191	0.318859	-0.22857	2	-0.0103407	40	38.442	-7.28817e-05
2	0	0	1	0	135.072	0.34259	0.342208	-0.215484	2	-0.0106015	40	39.6165	-7.37402e-05
2	0	0	1	0	136.246	0.366078	0.365959	-0.191019	2	-0.0108407	40	40.7909	-6.99052e-05
2	0	0	1	0	137.42	0.389567	0.389222	-0.143829	2	-0.0110393	40	41.9653	-5.59812e-05
2	0	0	1	0	138.595	0.413055	0.412656	-0.0681487	2	-0.0111657	40	43.1398	-2.8122e-05
2	1	0	1	0	139.799	0.437144	0.436884	0.0276031	2	-0.0111899	41	0.3248	1.20594e-05
2	1	0	1	0	139.943	0.440018	0.439817	0.038642	2	-0.0111852	41	0.4685	1.69954e-05