File: Python/Data/GoldElectrode/240322/Gold/240322-CVEIS-PostActivation-5mM_Fe2Fe3-1M_H2SO4-2000RPM-Ag_AgCl_BLF8-Au_RDE_02_PEIS_C15.mpt
EC-Lab ASCII FILE
Nb header lines : 66

Potentio Electrochemical Impedance Spectroscopy

Run on channel : 15 (SN 19485)
User :
Electrode connection : standard
Potential control : Ewe
Ewe ctrl range : min = -1.00 V, max = 1.00 V
Ewe,I filtering : <None>
Safety Limits :
	Do not start on E overload
Channel : Floating
Acquisition started on : 03/22/2024 12:00:59.571
Loaded Setting File :  C:\Data\mathias\GoldElectrode\240320-CVEIS_PostActivation-Fe2Fe3_5mM-HCl1M-0000RPM-Ag_AgCl_BLF8-Au_RDE.mps
Saved on :
	File : 240322-CVEIS-PostActivation-5mM_Fe2Fe3-1M_H2SO4-2000RPM-Ag_AgCl_BLF8-Au_RDE_02_PEIS_C15.mpr
	Directory : C:\Data\mathias\GoldElectrode\
	Host : 192.168.0.1
Device : VMP-300 (SN 0826)
Address : USB
EC-Lab for windows v11.52 (software)
Internet server v11.52 (firmware)
Command interpretor v11.52 (firmware)
Electrode material :
Initial state :
Electrolyte :
Comments :
Cable : special
Electrode surface area : 0.001 cm²
Characteristic mass : 0.001 g
Equivalent Weight : 0.000 g/eq.
Density : 0.000 g/cm3
Volume (V) : 0.001 cm³
Record EIS quality indicators
Cycle Definition : Charge/Discharge alternance
Mode                Single sine
E (V)               0.0000
vs.                 Eoc
tE (h:m:s)          0:00:0.0000
record              0
dI                  0.000
unit dI             mA
dt (s)              0.000
fi                  400.000
unit fi             kHz
ff                  100.000
unit ff             mHz
Nd                  10
Points              per decade
spacing             Logarithmic
Va (mV)             5.0
pw                  0.10
Na                  3
corr                0
E range min (V)     -1.000
E range max (V)     1.000
I Range             Auto
Bandwidth           8
nc cycles           2
goto Ns'            0
nr cycles           0
inc. cycle          1

freq/Hz	Re(Z)/Ohm	-Im(Z)/Ohm	|Z|/Ohm	Phase(Z)/deg	time/s	<Ewe>/V	<I>/mA	Cs/µF	Cp/µF	cycle number	I Range	|Ewe|/V	|I|/A	Ns	(Q-Qo)/mA.h	THD Ewe/%	NSD Ewe/%	NSR Ewe/%	|Ewe h2|/V	|Ewe h3|/V	|Ewe h4|/V	|Ewe h5|/V	|Ewe h6|/V	|Ewe h7|/V	THD I/%	NSD I/%	NSR I/%	|I h2|/A	|I h3|/A	|I h4|/A	|I h5|/A	|I h6|/A	|I h7|/A	Re(Y)/Ohm-1	Im(Y)/Ohm-1	|Y|/Ohm-1	Phase(Y)/deg	Re(C)/nF	Im(C)/nF	|C|/nF	Phase(C)/deg	Re(M)	Im(M)	|M|	Phase(M)/deg	Re(Permittivity)	Im(Permittivity)	|Permittivity|	Phase(Permittivity)/deg	Re(Resistivity)/Ohm.cm	Im(Resistivity)/Ohm.cm	|Resistivity|/Ohm.cm	Phase(Resistivity)/deg	Re(Conductivity)/mS/cm	Im(Conductivity)/mS/cm	|Conductivity|/mS/cm	Phase(Conductivity)/deg	Tan(Delta)	Loss Angle(Delta)/deg	dq/mA.h
399996	3.15601	0.280692	3.16846	-5.08246	143.818	0.440284	-0.0783384	1.41753	0.0111249	1	37	0.00455733	0.00143834	0	-2.68099e-05	-1	-1	-1	0	0	0	0	0	0	-1	-1	-1	0	0	0	0	0	0	0.31437	0.0279597	0.31561	5.08246	11.1249	125.085	125.579	-84.9175	0.0000000E+000	0.0000000E+000	0.0000000E+000	84.9175	0.0000000E+000	0.0000000E+000	0.0000000E+000	-84.9175	0.0000000E+000	0.0000000E+000	0.0000000E+000	-5.08246	0.0000000E+000	0.0000000E+000	0.0000000E+000	5.08246	11.2436	84.9175	-2.68099e-05
20032.3	2.78717	0.934827	2.93976	-18.5417	158.739	0.440246	-0.00670313	8.49882	0.859402	1	37	0.0051511	0.00175222	0	-7.01248e-07	1.12991	0.767389	27.1159	2.11899e-05	1.10043e-05	2.22123e-05	2.66225e-05	2.67796e-05	2.11247e-05	0.483538	0.317325	10.1991	3.15716e-06	2.38085e-06	3.32455e-06	2.96366e-06	4.38681e-06	2.97448e-06	0.322507	0.10817	0.340164	18.5417	859.402	2562.29	2702.57	-71.4583	0.0000000E+000	0.0000000E+000	0.0000000E+000	71.4583	0.0000000E+000	0.0000000E+000	0.0000000E+000	-71.4583	0.0000000E+000	0.0000000E+000	0.0000000E+000	-18.5417	0.0000000E+000	0.0000000E+000	0.0000000E+000	18.5417	2.98148	71.4583	8.74909e-08
1002.75	6.27704	14.3848	15.6947	-66.4251	173.976	0.440104	-0.00390664	11.0338	9.26883	1	38	0.00490379	0.000312449	0	-2.24963e-05	1.35182	0.935689	27.062	3.78566e-05	2.46667e-05	2.01769e-05	2.40483e-05	2.35277e-05	2.09505e-05	0.708141	0.300684	9.5898	1.43902e-06	7.52084e-07	8.70288e-07	8.75071e-07	4.08702e-07	5.49424e-07	0.0254829	0.058398	0.0637158	66.4251	9268.83	4044.61	10112.9	-23.5749	0.0000000E+000	0.0000000E+000	0.0000000E+000	23.5749	0.0000000E+000	0.0000000E+000	0.0000000E+000	-23.5749	0.0000000E+000	0.0000000E+000	0.0000000E+000	-66.4251	0.0000000E+000	0.0000000E+000	0.0000000E+000	66.4251	0.436367	23.5749	-1.43194e-06
50.2089	92.1517	47.4591	103.655	-27.249	188.516	0.440184	-0.00140943	66.7913	14.0017	1	39	0.00474613	4.57879e-05	0	-2.87397e-05	1.46187	0.885531	27.7781	2.91343e-05	2.92987e-05	2.53112e-05	2.47185e-05	3.01876e-05	1.59558e-05	1.5344	1.03952	28.3353	2.85347e-07	3.42006e-07	2.52149e-07	2.00164e-07	2.49721e-07	1.75862e-07	0.0085768	0.00441715	0.00964742	27.249	14001.7	27187.2	30580.9	-62.751	0.0000000E+000	0.0000000E+000	0.0000000E+000	62.751	0.0000000E+000	0.0000000E+000	0.0000000E+000	-62.751	0.0000000E+000	0.0000000E+000	0.0000000E+000	-27.249	0.0000000E+000	0.0000000E+000	0.0000000E+000	27.249	1.94171	62.751	-4.02249e-07
2.51368	168.838	40.3037	173.582	-13.426	207.554	0.440153	-0.00143902	1570.96	84.6931	1	40	0.00473952	2.73043e-05	0	-3.61053e-05	0.656928	0.368205	14.9605	9.65192e-06	1.51496e-05	8.82497e-06	6.78063e-06	5.79615e-06	1.89496e-05	0.28144	0.0904232	3.22487	5.73872e-08	1.85802e-08	1.92825e-08	3.22323e-08	1.00042e-08	2.38546e-08	0.00560353	0.00133763	0.00576098	13.426	84693.1	354791	364760	-76.574	0.0000000E+000	0.0000000E+000	0.0000000E+000	76.574	0.0000000E+000	0.0000000E+000	0.0000000E+000	-76.574	0.0000000E+000	0.0000000E+000	0.0000000E+000	-13.426	0.0000000E+000	0.0000000E+000	0.0000000E+000	13.426	4.18914	76.574	-1.17342e-06
0.125939	286.579	6.17189	286.645	-1.23376	437.842	0.440155	-0.00126973	204759	94.9271	1	41	0.00474952	1.65693e-05	0	-0.000119763	0.233332	0.137912	4.16495	1.70587e-06	3.20311e-06	5.16265e-06	5.15331e-06	4.09283e-06	4.6228e-06	0.317561	0.434216	0.418697	4.14224e-08	2.28185e-08	1.34194e-08	1.21441e-08	9.65746e-09	6.78146e-09	0.00348782	7.51154e-05	0.00348863	1.23376	94927	4.40774e+06	4.40876e+06	-88.7662	0.0000000E+000	0.0000000E+000	0.0000000E+000	88.7662	0.0000000E+000	0.0000000E+000	0.0000000E+000	-88.7662	0.0000000E+000	0.0000000E+000	0.0000000E+000	-1.23376	0.0000000E+000	0.0000000E+000	0.0000000E+000	1.23376	46.4329	88.7662	-1.26667e-05
31751	2.74969	0.800933	2.86397	-16.2398	515.406	0.440212	-0.0366114	6.25844	0.489467	2	37	0.00512541	0.00178962	0	-0.000322414	1.3301	1.09328	26.3264	2.59303e-05	3.44108e-05	3.15243e-05	1.35168e-05	2.14292e-05	3.09522e-05	0.56542	0.252968	9.95116	5.25155e-06	4.48381e-06	2.57508e-06	3.84385e-06	4.10081e-06	2.4651e-06	0.335234	0.0976475	0.349166	16.2398	489.467	1680.39	1750.23	-73.7601	0.0000000E+000	0.0000000E+000	0.0000000E+000	73.7601	0.0000000E+000	0.0000000E+000	0.0000000E+000	-73.7601	0.0000000E+000	0.0000000E+000	0.0000000E+000	-16.2398	0.0000000E+000	0.0000000E+000	0.0000000E+000	16.2398	3.43311	73.7601	-1.03343e-05
1589.49	4.75659	12.3992	13.2802	-69.0121	530.873	0.440136	-0.00450991	8.0755	7.03952	2	38	0.00472152	0.00035553	0	-0.000409888	1.28013	0.644351	28.103	2.2337e-05	2.6225e-05	1.54546e-05	2.09686e-05	2.7304e-05	2.69023e-05	0.810909	0.245105	8.54141	2.06113e-06	8.34479e-07	7.58204e-07	1.3809e-06	6.43972e-07	3.54993e-07	0.0269702	0.0703042	0.0752999	69.0121	7039.52	2700.51	7539.74	-20.9879	0.0000000E+000	0.0000000E+000	0.0000000E+000	20.9879	0.0000000E+000	0.0000000E+000	0.0000000E+000	-20.9879	0.0000000E+000	0.0000000E+000	0.0000000E+000	-69.0121	0.0000000E+000	0.0000000E+000	0.0000000E+000	69.0121	0.383622	20.9879	-1.07929e-06
79.6177	101.5	99.6542	142.243	-44.4743	545.706	0.440178	-0.0010486	20.0593	9.84559	2	39	0.00491092	3.45247e-05	0	-0.000418201	1.71631	0.726953	27.3162	2.26289e-05	1.98654e-05	3.60498e-05	3.36986e-05	4.05329e-05	2.94898e-05	2.46679	0.934737	36.1328	3.83595e-07	1.70926e-07	1.89434e-07	2.61919e-07	4.68409e-07	4.29499e-07	0.00501651	0.00492528	0.0070302	44.4743	9845.59	10027.9	14053.3	-45.5257	0.0000000E+000	0.0000000E+000	0.0000000E+000	45.5257	0.0000000E+000	0.0000000E+000	0.0000000E+000	-45.5257	0.0000000E+000	0.0000000E+000	0.0000000E+000	-44.4743	0.0000000E+000	0.0000000E+000	0.0000000E+000	44.4743	1.01852	45.5257	-3.89625e-07
3.98597	262.79	56.9247	268.884	-12.2224	561.745	0.440146	-0.00120037	701.432	31.438	2	40	0.00491826	1.82913e-05	0	-0.000423488	1.09718	0.518149	19.1189	3.06393e-05	1.4955e-05	2.68483e-05	1.28365e-05	1.78666e-05	1.60964e-05	0.424588	0.146394	6.36247	5.78224e-08	1.08653e-08	2.81438e-08	2.17756e-08	2.46961e-08	1.99794e-08	0.00363477	0.000787353	0.00371907	12.2224	31438	145132	148498	-77.7776	0.0000000E+000	0.0000000E+000	0.0000000E+000	77.7776	0.0000000E+000	0.0000000E+000	0.0000000E+000	-77.7776	0.0000000E+000	0.0000000E+000	0.0000000E+000	-12.2224	0.0000000E+000	0.0000000E+000	0.0000000E+000	12.2224	4.61644	77.7776	-7.04833e-07
0.199573	371.778	11.956	371.97	-1.84193	709.072	0.440144	-0.00117157	66701	68.9105	2	41	0.00490318	1.31816e-05	0	-0.000475315	0.27569	0.17673	4.61892	5.89947e-06	5.85811e-06	4.45948e-06	5.04805e-06	4.2671e-06	4.97585e-06	0.223424	0.246636	0.581139	2.58753e-08	9.51684e-09	7.37834e-10	9.44644e-09	3.16104e-09	1.9758e-09	0.002687	8.64108e-05	0.00268839	1.84193	68910.5	2.14281e+06	2.14392e+06	-88.1581	0.0000000E+000	0.0000000E+000	0.0000000E+000	88.1581	0.0000000E+000	0.0000000E+000	0.0000000E+000	-88.1581	0.0000000E+000	0.0000000E+000	0.0000000E+000	-1.84193	0.0000000E+000	0.0000000E+000	0.0000000E+000	1.84193	31.0956	88.1581	-1.13351e-05
50326.6	2.7335	0.598581	2.79827	-12.3517	871.994	0.440256	-0.0314375	5.28323	0.24175	3	37	0.00517102	0.00184794	0	-0.000658809	1.49796	0.658703	25.7169	3.84779e-05	3.15068e-05	3.3266e-05	3.21961e-05	2.33511e-05	8.80671e-06	0.432656	0.250124	9.63217	1.84012e-06	3.20006e-06	2.32425e-06	3.63338e-06	3.61058e-06	2.70806e-06	0.349092	0.0764442	0.357364	12.3517	241.75	1103.98	1130.14	-77.6483	0.0000000E+000	0.0000000E+000	0.0000000E+000	77.6483	0.0000000E+000	0.0000000E+000	0.0000000E+000	-77.6483	0.0000000E+000	0.0000000E+000	0.0000000E+000	-12.3517	0.0000000E+000	0.0000000E+000	0.0000000E+000	12.3517	4.56663	77.6483	-1.27613e-05
2519.19	4.01486	9.28754	10.1182	-66.6219	887.07	0.440121	-0.00305945	6.80234	5.73133	3	38	0.00465079	0.000459647	0	-0.000723645	1.48697	1.1185	27.7946	2.73498e-05	2.39014e-05	1.94409e-05	3.23772e-05	2.94036e-05	2.46865e-05	0.640474	0.149758	6.40679	2.36155e-06	1.27295e-06	3.7136e-07	3.83199e-07	6.88924e-07	5.78699e-07	0.0392162	0.0907185	0.098832	66.6219	5731.33	2477.56	6243.91	-23.3781	0.0000000E+000	0.0000000E+000	0.0000000E+000	23.3781	0.0000000E+000	0.0000000E+000	0.0000000E+000	-23.3781	0.0000000E+000	0.0000000E+000	0.0000000E+000	-66.6219	0.0000000E+000	0.0000000E+000	0.0000000E+000	66.6219	0.432284	23.3781	-1.42255e-06
126.171	69.0167	109.315	129.279	-57.7336	901.924	0.440132	-0.00117981	11.5393	8.25055	3	39	0.00460943	3.56548e-05	0	-0.000731053	1.55075	0.774971	28.0918	3.65715e-05	3.98486e-05	1.55947e-05	1.98774e-05	1.44163e-05	3.08373e-05	1.76013	0.606717	34.4633	3.34096e-07	2.96572e-07	1.16663e-07	1.77888e-07	2.22635e-07	2.27122e-07	0.00412948	0.00654068	0.00773519	57.7336	8250.55	5209.02	9757.33	-32.2664	0.0000000E+000	0.0000000E+000	0.0000000E+000	32.2664	0.0000000E+000	0.0000000E+000	0.0000000E+000	-32.2664	0.0000000E+000	0.0000000E+000	0.0000000E+000	-57.7336	0.0000000E+000	0.0000000E+000	0.0000000E+000	57.7336	0.631354	32.2664	-3.25586e-07
6.31569	329.399	82.0391	339.461	-13.9854	916.613	0.440142	-0.00118607	307.17	17.9407	3	40	0.00459171	1.35264e-05	0	-0.000735782	1.31136	1.17266	27.8064	2.07032e-05	2.85904e-05	1.53553e-05	2.06491e-05	3.76106e-05	8.11345e-06	0.538823	0.491661	11.0054	4.22898e-08	2.60114e-08	2.09271e-08	1.57547e-08	3.78786e-08	1.54308e-08	0.00285852	0.000711934	0.00294584	13.9854	17940.7	72034.6	74235.1	-76.0146	0.0000000E+000	0.0000000E+000	0.0000000E+000	76.0146	0.0000000E+000	0.0000000E+000	0.0000000E+000	-76.0146	0.0000000E+000	0.0000000E+000	0.0000000E+000	-13.9854	0.0000000E+000	0.0000000E+000	0.0000000E+000	13.9854	4.01515	76.0146	-4.95482e-07
0.316193	457.929	21.5146	458.435	-2.68991	1011.63	0.440148	-0.00115244	23395.6	51.5284	3	41	0.00459879	1.00315e-05	0	-0.000766669	0.372714	0.228141	6.29905	3.19401e-06	8.04219e-06	7.13643e-06	7.94551e-06	6.32514e-06	5.07923e-06	0.217926	0.0911481	0.956392	1.91451e-08	6.60149e-09	3.12637e-09	6.8166e-09	6.39886e-10	2.00156e-09	0.00217893	0.000102371	0.00218134	2.68991	51528.4	1.09676e+06	1.09797e+06	-87.3101	0.0000000E+000	0.0000000E+000	0.0000000E+000	87.3101	0.0000000E+000	0.0000000E+000	0.0000000E+000	-87.3101	0.0000000E+000	0.0000000E+000	0.0000000E+000	-2.68991	0.0000000E+000	0.0000000E+000	0.0000000E+000	2.68991	21.2846	87.3101	-7.02202e-06
0.0999518	511.82	8.55468	511.891	-0.957567	1216.21	0.440177	-0.00109089	186134	51.985	3	41	0.00459521	8.97693e-06	0	-0.000831793	0.257945	0.149458	6.00779	4.7565e-06	4.62499e-06	2.81338e-06	7.21906e-06	4.33966e-06	2.72754e-06	0.193733	0.217352	0.507854	1.30371e-08	3.08889e-09	4.24233e-09	9.48622e-09	2.38112e-09	2.41105e-09	0.00195327	3.26474e-05	0.00195354	0.957567	51984.9	3.11022e+06	3.11066e+06	-89.0424	0.0000000E+000	0.0000000E+000	0.0000000E+000	89.0424	0.0000000E+000	0.0000000E+000	0.0000000E+000	-89.0424	0.0000000E+000	0.0000000E+000	0.0000000E+000	-0.957567	0.0000000E+000	0.0000000E+000	0.0000000E+000	0.957567	59.8292	89.0424	-2.18214e-05