File: Python/Data/GoldElectrode/240322/Gold/240322-CVEIS-PostActivation-5mM_Fe2Fe3-1M_H2SO4-0225RPM-Ag_AgCl_BLF8-Au_RDE_02_PEIS_C15.mpt
EC-Lab ASCII FILE
Nb header lines : 66

Potentio Electrochemical Impedance Spectroscopy

Run on channel : 15 (SN 19485)
User :
Electrode connection : standard
Potential control : Ewe
Ewe ctrl range : min = -1.00 V, max = 1.00 V
Ewe,I filtering : <None>
Safety Limits :
	Do not start on E overload
Channel : Floating
Acquisition started on : 03/22/2024 11:37:10.055
Loaded Setting File :  C:\Data\mathias\GoldElectrode\240320-CVEIS_PostActivation-Fe2Fe3_5mM-HCl1M-0000RPM-Ag_AgCl_BLF8-Au_RDE.mps
Saved on :
	File : 240322-CVEIS-PostActivation-5mM_Fe2Fe3-1M_H2SO4-0225RPM-Ag_AgCl_BLF8-Au_RDE_02_PEIS_C15.mpr
	Directory : C:\Data\mathias\GoldElectrode\
	Host : 192.168.0.1
Device : VMP-300 (SN 0826)
Address : USB
EC-Lab for windows v11.52 (software)
Internet server v11.52 (firmware)
Command interpretor v11.52 (firmware)
Electrode material :
Initial state :
Electrolyte :
Comments :
Cable : special
Electrode surface area : 0.001 cm²
Characteristic mass : 0.001 g
Equivalent Weight : 0.000 g/eq.
Density : 0.000 g/cm3
Volume (V) : 0.001 cm³
Record EIS quality indicators
Cycle Definition : Charge/Discharge alternance
Mode                Single sine
E (V)               0.0000
vs.                 Eoc
tE (h:m:s)          0:00:0.0000
record              0
dI                  0.000
unit dI             mA
dt (s)              0.000
fi                  400.000
unit fi             kHz
ff                  100.000
unit ff             mHz
Nd                  10
Points              per decade
spacing             Logarithmic
Va (mV)             5.0
pw                  0.10
Na                  3
corr                0
E range min (V)     -1.000
E range max (V)     1.000
I Range             Auto
Bandwidth           8
nc cycles           2
goto Ns'            0
nr cycles           0
inc. cycle          1

freq/Hz	Re(Z)/Ohm	-Im(Z)/Ohm	|Z|/Ohm	Phase(Z)/deg	time/s	<Ewe>/V	<I>/mA	Cs/µF	Cp/µF	cycle number	I Range	|Ewe|/V	|I|/A	Ns	(Q-Qo)/mA.h	THD Ewe/%	NSD Ewe/%	NSR Ewe/%	|Ewe h2|/V	|Ewe h3|/V	|Ewe h4|/V	|Ewe h5|/V	|Ewe h6|/V	|Ewe h7|/V	THD I/%	NSD I/%	NSR I/%	|I h2|/A	|I h3|/A	|I h4|/A	|I h5|/A	|I h6|/A	|I h7|/A	Re(Y)/Ohm-1	Im(Y)/Ohm-1	|Y|/Ohm-1	Phase(Y)/deg	Re(C)/nF	Im(C)/nF	|C|/nF	Phase(C)/deg	Re(M)	Im(M)	|M|	Phase(M)/deg	Re(Permittivity)	Im(Permittivity)	|Permittivity|	Phase(Permittivity)/deg	Re(Resistivity)/Ohm.cm	Im(Resistivity)/Ohm.cm	|Resistivity|/Ohm.cm	Phase(Resistivity)/deg	Re(Conductivity)/mS/cm	Im(Conductivity)/mS/cm	|Conductivity|/mS/cm	Phase(Conductivity)/deg	Tan(Delta)	Loss Angle(Delta)/deg	dq/mA.h
399996	3.19309	0.232336	3.20153	-4.16163	143.356	0.439847	-0.183734	1.71257	0.00901914	1	37	0.0045726	0.00142825	0	-7.35293e-05	-1	-1	-1	0	0	0	0	0	0	-1	-1	-1	0	0	0	0	0	0	0.311527	0.0226674	0.31235	4.16163	9.01914	123.954	124.281	-85.8384	0.0000000E+000	0.0000000E+000	0.0000000E+000	85.8384	0.0000000E+000	0.0000000E+000	0.0000000E+000	-85.8384	0.0000000E+000	0.0000000E+000	0.0000000E+000	-4.16163	0.0000000E+000	0.0000000E+000	0.0000000E+000	4.16163	13.7434	85.8384	-7.35293e-05
20032.3	2.79278	0.698453	2.87879	-14.0412	158.279	0.439848	-0.0604525	11.375	0.669586	1	37	0.00515722	0.00179146	0	-0.000387029	1.07084	0.616383	25.3351	2.07522e-05	1.76165e-05	1.77963e-05	2.86041e-05	1.35606e-05	2.0385e-05	0.617717	0.751644	10.011	5.59249e-06	4.28556e-06	3.24534e-06	4.71463e-06	4.02223e-06	3.61937e-06	0.336989	0.0842785	0.347368	14.0412	669.586	2677.35	2759.81	-75.9588	0.0000000E+000	0.0000000E+000	0.0000000E+000	75.9588	0.0000000E+000	0.0000000E+000	0.0000000E+000	-75.9588	0.0000000E+000	0.0000000E+000	0.0000000E+000	-14.0412	0.0000000E+000	0.0000000E+000	0.0000000E+000	14.0412	3.99852	75.9588	-2.06858e-05
1002.75	7.02887	9.26388	11.6286	-52.811	173.738	0.439714	-0.00750203	17.133	10.8734	1	38	0.00493433	0.000424326	0	-0.000494876	1.26811	0.714748	25.2115	3.32283e-05	2.49852e-05	1.57938e-05	2.71028e-05	2.10483e-05	2.32513e-05	0.550806	0.371477	6.90196	1.20327e-06	8.80226e-07	4.71804e-07	1.18708e-06	6.69921e-07	5.37627e-07	0.0519793	0.0685074	0.0859948	52.811	10873.4	8250.06	13648.9	-37.189	0.0000000E+000	0.0000000E+000	0.0000000E+000	37.189	0.0000000E+000	0.0000000E+000	0.0000000E+000	-37.189	0.0000000E+000	0.0000000E+000	0.0000000E+000	-52.811	0.0000000E+000	0.0000000E+000	0.0000000E+000	52.811	0.75874	37.189	-2.53964e-06
50.2089	36.097	14.2189	38.7965	-21.4999	188.277	0.439759	-0.00289729	222.933	29.9447	1	39	0.00476731	0.00012288	0	-0.000511393	1.23696	0.457015	27.0765	3.41823e-05	1.33527e-05	2.16288e-05	1.61008e-05	2.44236e-05	2.30748e-05	0.653717	0.17629	9.80963	5.52997e-07	2.95853e-07	2.92564e-07	2.55107e-07	1.45816e-07	2.11122e-07	0.023982	0.00944671	0.0257755	21.4999	29944.7	76019.6	81704.8	-68.5001	0.0000000E+000	0.0000000E+000	0.0000000E+000	68.5001	0.0000000E+000	0.0000000E+000	0.0000000E+000	-68.5001	0.0000000E+000	0.0000000E+000	0.0000000E+000	-21.4999	0.0000000E+000	0.0000000E+000	0.0000000E+000	21.4999	2.53867	68.5001	-9.73441e-07
2.51368	70.404	36.0886	79.1146	-27.1393	207.708	0.439733	-0.00251101	1754.45	365.063	1	40	0.00476206	6.01919e-05	0	-0.000525733	0.665326	0.500262	14.5075	7.5335e-06	1.48354e-05	9.7982e-06	1.00951e-05	1.24692e-05	1.62139e-05	0.376847	0.144672	1.39673	2.00754e-07	4.77146e-08	2.62447e-08	7.32839e-08	3.06211e-08	3.46783e-08	0.0112482	0.00576576	0.0126399	27.1393	365063	712189	800302	-62.8607	0.0000000E+000	0.0000000E+000	0.0000000E+000	62.8607	0.0000000E+000	0.0000000E+000	0.0000000E+000	-62.8607	0.0000000E+000	0.0000000E+000	0.0000000E+000	-27.1393	0.0000000E+000	0.0000000E+000	0.0000000E+000	27.1393	1.95087	62.8607	-2.15849e-06
0.125939	246.839	83.5773	260.604	-18.7056	441.025	0.439734	-0.00236238	15120.7	1555.2	1	41	0.00475118	1.82314e-05	0	-0.000673887	0.225461	0.215288	3.89285	4.33897e-06	4.50298e-06	3.98104e-06	5.98821e-06	2.75947e-06	3.06529e-06	0.504737	0.20019	0.603695	8.71452e-08	8.53667e-09	5.36977e-09	2.707e-08	3.59523e-09	3.92191e-09	0.00363455	0.00123063	0.00383724	18.7056	1.5552e+06	4.59316e+06	4.84931e+06	-71.2944	0.0000000E+000	0.0000000E+000	0.0000000E+000	71.2944	0.0000000E+000	0.0000000E+000	0.0000000E+000	-71.2944	0.0000000E+000	0.0000000E+000	0.0000000E+000	-18.7056	0.0000000E+000	0.0000000E+000	0.0000000E+000	18.7056	2.95342	71.2944	-2.65248e-05
31751	2.76094	0.561574	2.81747	-11.4971	518.434	0.439851	-0.0301347	8.92596	0.354609	2	37	0.00513588	0.00182287	0	-0.000892466	1.39908	0.877929	25.5049	1.97897e-05	3.28519e-05	2.46969e-05	1.16938e-05	4.57669e-05	1.61866e-05	0.526485	0.36772	9.68725	4.28241e-06	4.83094e-06	3.35411e-06	4.23238e-06	2.7217e-06	3.1675e-06	0.347806	0.0707437	0.354928	11.4971	354.609	1743.41	1779.11	-78.5029	0.0000000E+000	0.0000000E+000	0.0000000E+000	78.5029	0.0000000E+000	0.0000000E+000	0.0000000E+000	-78.5029	0.0000000E+000	0.0000000E+000	0.0000000E+000	-11.4971	0.0000000E+000	0.0000000E+000	0.0000000E+000	11.4971	4.91643	78.5029	-1.03928e-05
1589.49	4.7052	8.30175	9.54243	-60.4566	533.972	0.439634	-0.00776456	12.0612	9.1288	2	38	0.00495473	0.000519231	0	-0.000977088	1.25033	0.967869	25.7221	3.9617e-05	2.11561e-05	1.73281e-05	1.51366e-05	1.55245e-05	2.3858e-05	0.650092	0.331507	5.6867	2.80767e-06	1.13006e-06	5.52291e-07	6.69941e-07	4.16626e-07	7.73827e-07	0.0516726	0.09117	0.104795	60.4566	9128.8	5173.95	10493.1	-29.5434	0.0000000E+000	0.0000000E+000	0.0000000E+000	29.5434	0.0000000E+000	0.0000000E+000	0.0000000E+000	-29.5434	0.0000000E+000	0.0000000E+000	0.0000000E+000	-60.4566	0.0000000E+000	0.0000000E+000	0.0000000E+000	60.4566	0.566772	29.5434	-3.41692e-06
79.6177	53.39	26.962	59.8117	-26.7938	548.577	0.439723	-0.00239743	74.1411	15.0657	2	39	0.00462383	7.73064e-05	0	-0.000991724	1.69586	1.04027	28.2501	2.34928e-05	3.56122e-05	2.4201e-05	3.42402e-05	2.74885e-05	3.08021e-05	0.981671	0.48749	15.8928	1.70203e-07	3.53936e-07	2.64028e-07	3.86446e-07	2.33166e-07	3.19733e-07	0.0149241	0.00753666	0.0167191	26.7938	15065.7	29833.1	33421.4	-63.2062	0.0000000E+000	0.0000000E+000	0.0000000E+000	63.2062	0.0000000E+000	0.0000000E+000	0.0000000E+000	-63.2062	0.0000000E+000	0.0000000E+000	0.0000000E+000	-26.7938	0.0000000E+000	0.0000000E+000	0.0000000E+000	26.7938	1.9802	63.2062	-7.84403e-07
3.98597	92.4788	31.7594	97.7803	-18.9537	564.812	0.439732	-0.00219941	1257.23	132.634	2	40	0.00460117	4.70562e-05	0	-0.00100227	1.10474	0.663577	19.1093	1.43004e-05	2.88722e-05	1.7764e-05	1.12979e-05	2.19076e-05	2.22924e-05	0.223421	0.191065	2.25943	5.49884e-08	5.01847e-08	2.03817e-08	4.9272e-08	3.44002e-08	2.0127e-08	0.00967252	0.00332177	0.010227	18.9537	132634	386212	408352	-71.0463	0.0000000E+000	0.0000000E+000	0.0000000E+000	71.0463	0.0000000E+000	0.0000000E+000	0.0000000E+000	-71.0463	0.0000000E+000	0.0000000E+000	0.0000000E+000	-18.9537	0.0000000E+000	0.0000000E+000	0.0000000E+000	18.9537	2.91186	71.0463	-5.37435e-07
0.199573	233.403	95.1155	252.039	-22.1717	714.544	0.439766	-0.00220162	8384.28	1194.08	2	41	0.00459078	1.82145e-05	0	-0.00108964	0.269292	0.168734	5.16335	3.22114e-06	5.6202e-06	3.59883e-06	2.9524e-06	6.17051e-06	4.78741e-06	0.409146	0.151371	0.550431	6.72118e-08	1.13697e-08	7.10985e-09	2.69252e-08	6.36838e-09	5.16969e-09	0.00367426	0.00149732	0.00396763	22.1717	1.19408e+06	2.93013e+06	3.16409e+06	-67.8283	0.0000000E+000	0.0000000E+000	0.0000000E+000	67.8283	0.0000000E+000	0.0000000E+000	0.0000000E+000	-67.8283	0.0000000E+000	0.0000000E+000	0.0000000E+000	-22.1717	0.0000000E+000	0.0000000E+000	0.0000000E+000	22.1717	2.45389	67.8283	-1.52248e-05
50326.6	2.72785	0.399215	2.75691	-8.326	877.158	0.439838	-0.035625	7.92165	0.166105	3	37	0.00516518	0.00187354	0	-0.00135515	1.21325	1.02961	25.9437	2.27694e-05	2.66133e-05	2.35912e-05	2.43245e-05	2.59695e-05	1.95725e-05	0.560637	0.392305	9.56729	5.23311e-06	5.30772e-06	3.41016e-06	4.35711e-06	2.26596e-06	2.64929e-06	0.358902	0.0525244	0.362725	8.326	166.105	1135.01	1147.1	-81.674	0.0000000E+000	0.0000000E+000	0.0000000E+000	81.674	0.0000000E+000	0.0000000E+000	0.0000000E+000	-81.674	0.0000000E+000	0.0000000E+000	0.0000000E+000	-8.326	0.0000000E+000	0.0000000E+000	0.0000000E+000	8.326	6.83304	81.674	-1.10489e-05
2519.19	3.73097	6.24363	7.27345	-59.139	892.304	0.43973	-0.00565313	10.1186	7.45617	3	38	0.00497696	0.000684264	0	-0.00144819	1.38799	0.759806	25.9444	1.18154e-05	1.82953e-05	1.78694e-05	4.34538e-05	3.0723e-05	2.40347e-05	0.483225	0.322677	4.32059	2.85696e-06	1.08402e-06	3.79712e-07	9.7373e-07	3.82736e-07	3.66453e-07	0.0705246	0.11802	0.137486	59.139	7456.17	4455.54	8685.98	-30.861	0.0000000E+000	0.0000000E+000	0.0000000E+000	30.861	0.0000000E+000	0.0000000E+000	0.0000000E+000	-30.861	0.0000000E+000	0.0000000E+000	0.0000000E+000	-59.139	0.0000000E+000	0.0000000E+000	0.0000000E+000	59.139	0.597564	30.861	-2.3966e-06
126.171	52.9918	45.1862	69.6414	-40.4543	907.158	0.439746	-0.00229734	27.9161	11.7525	3	39	0.004931	7.08056e-05	0	-0.0014633	1.30951	0.567609	26.7524	2.12621e-05	2.9564e-05	1.47204e-05	3.71644e-05	1.54007e-05	1.87439e-05	0.983588	0.373354	16.8922	2.17659e-07	3.93601e-07	3.0357e-07	3.06602e-07	1.55714e-07	1.95742e-07	0.0109263	0.00931689	0.0143593	40.4543	11752.5	13782.7	18113.1	-49.5457	0.0000000E+000	0.0000000E+000	0.0000000E+000	49.5457	0.0000000E+000	0.0000000E+000	0.0000000E+000	-49.5457	0.0000000E+000	0.0000000E+000	0.0000000E+000	-40.4543	0.0000000E+000	0.0000000E+000	0.0000000E+000	40.4543	1.17274	49.5457	-6.20935e-07
6.31569	117.101	30.1021	120.908	-14.4164	921.899	0.439769	-0.00204466	837.149	51.8904	3	40	0.00492716	4.07513e-05	0	-0.00147244	1.24407	0.870138	25.9209	2.86171e-05	1.62932e-05	2.16753e-05	3.02014e-05	2.60972e-05	1.71277e-05	0.269731	0.198976	3.69929	6.72522e-08	5.66482e-08	1.3033e-08	3.01309e-08	3.40107e-08	2.54357e-08	0.00801033	0.00205915	0.00827076	14.4164	51890.4	201860	208423	-75.5836	0.0000000E+000	0.0000000E+000	0.0000000E+000	75.5836	0.0000000E+000	0.0000000E+000	0.0000000E+000	-75.5836	0.0000000E+000	0.0000000E+000	0.0000000E+000	-14.4164	0.0000000E+000	0.0000000E+000	0.0000000E+000	14.4164	3.89012	75.5836	-1.1684e-06
0.316193	221.043	91.5541	239.254	-22.4989	1017.65	0.439739	-0.0020601	5497.81	805.06	3	41	0.00490732	2.05109e-05	0	-0.00152837	0.299374	0.171632	6.13794	4.46732e-06	4.21068e-06	6.90658e-06	4.60575e-06	7.11496e-06	5.83222e-06	0.359345	0.189738	0.467695	6.3133e-08	1.82287e-08	8.39213e-09	2.5025e-08	5.91177e-09	6.30537e-09	0.00386154	0.00159941	0.00417966	22.4989	805060	1.94369e+06	2.10382e+06	-67.5011	0.0000000E+000	0.0000000E+000	0.0000000E+000	67.5011	0.0000000E+000	0.0000000E+000	0.0000000E+000	-67.5011	0.0000000E+000	0.0000000E+000	0.0000000E+000	-22.4989	0.0000000E+000	0.0000000E+000	0.0000000E+000	22.4989	2.41435	67.5011	-1.0445e-05
0.0999518	328.903	73.4343	337.002	-12.586	1222.23	0.439737	-0.00205022	21683.6	1029.59	3	41	0.00490113	1.45433e-05	0	-0.00165012	0.238591	0.212855	5.593	5.46001e-06	5.2823e-06	5.74105e-06	2.84597e-06	2.77325e-06	4.69391e-06	0.382003	0.203872	0.435934	5.2557e-08	7.95557e-09	4.21142e-09	1.49937e-08	1.59962e-09	3.00017e-09	0.00289604	0.000646599	0.00296735	12.586	1.02959e+06	4.61141e+06	4.72496e+06	-77.414	0.0000000E+000	0.0000000E+000	0.0000000E+000	77.414	0.0000000E+000	0.0000000E+000	0.0000000E+000	-77.414	0.0000000E+000	0.0000000E+000	0.0000000E+000	-12.586	0.0000000E+000	0.0000000E+000	0.0000000E+000	12.586	4.47888	77.414	-3.91642e-05