File: Python/Data/GoldElectrode/240322/Gold/240322-CVEIS-PostActivation-5mM_Fe2Fe3-1M_H2SO4-0000RPM-Ag_AgCl_BLF8-Au_RDE_01_CV_C15.mpt
EC-Lab ASCII FILE
Nb header lines : 60

Cyclic Voltammetry

Run on channel : 15 (SN 19485)
User :
Electrode connection : standard
Potential control : Ewe
Ewe ctrl range : min = -1.00 V, max = 1.00 V
Ewe,I filtering : <None>
Safety Limits :
	Do not start on E overload
Channel : Floating
Acquisition started on : 03/22/2024 10:39:57.841
Loaded Setting File :  C:\Data\mathias\GoldElectrode\240320-CVEIS_PostActivation-Fe2Fe3_5mM-HCl1M-0000RPM-Ag_AgCl_BLF8-Au_RDE.mps
Saved on :
	File : 240322-CVEIS-PostActivation-5mM_Fe2Fe3-1M_H2SO4-0000RPM-Ag_AgCl_BLF8-Au_RDE_01_CV_C15.mpr
	Directory : C:\Data\mathias\GoldElectrode\
	Host : 192.168.0.1
Device : VMP-300 (SN 0826)
Address : USB
EC-Lab for windows v11.52 (software)
Internet server v11.52 (firmware)
Command interpretor v11.52 (firmware)
Electrode material :
Initial state :
Electrolyte :
Comments :
Cable : special
Electrode surface area : 0.001 cm²
Characteristic mass : 0.001 g
Equivalent Weight : 0.000 g/eq.
Density : 0.000 g/cm3
Volume (V) : 0.001 cm³
Record EIS quality indicators
Cycle Definition : Charge/Discharge alternance
Ei (V)              0.000
vs.                 Eoc
dE/dt               20.000
dE/dt unit          mV/s
E1 (V)              0.700
vs.                 Ref
Step percent        50
N                   10
E range min (V)     -1.000
E range max (V)     1.000
I Range             Auto
I Range min         Unset
I Range max         Unset
I Range init        Unset
Bandwidth           8
E2 (V)              0.000
vs.                 Ref
nc cycles           1
Reverse Scan        1
Ef (V)              0.000
vs.                 Eoc

mode	ox/red	error	control changes	counter inc.	time/s	control/V	Ewe/V	<I>/mA	cycle number	(Q-Qo)/C	I Range	step time/s	P/W
2	1	0	1	0	0.000000000000000E+000	0.443566	0.443234	0.0280555	1	0.0000000E+000	41	0.000000000000000E+000	1.24351e-05
2	1	0	1	0	1.1632	0.46683	0.466378	0.104663	1	9.14202e-05	41	1.1494	4.88124e-05
2	1	0	1	0	2.3677	0.490919	0.490657	0.10877	1	0.000223928	40	2.3539	5.3369e-05
2	1	0	1	0	3.5421	0.514407	0.513952	0.0948582	1	0.000345224	40	3.5283	4.87526e-05
2	1	0	1	0	4.7166	0.537896	0.537505	0.0802392	1	0.00044926	40	4.7028	4.3129e-05
2	1	0	1	0	5.891	0.561385	0.561218	0.0684225	1	0.000538138	40	5.8772	3.83999e-05
2	1	0	1	0	7.0654	0.584874	0.584581	0.0603362	1	0.000615796	40	7.0516	3.52714e-05
2	1	0	1	0	8.2399	0.608363	0.607988	0.0542621	1	0.00068539	40	8.2261	3.29907e-05
2	1	0	1	0	9.4143	0.631852	0.631487	0.0496617	1	0.000749098	40	9.4005	3.13607e-05
2	1	0	1	0	10.5888	0.655341	0.654988	0.0464356	1	0.000808396	40	10.575	3.04148e-05
2	1	0	1	0	11.7632	0.67883	0.678428	0.0438867	1	0.000864247	40	11.7494	2.9774e-05
2	1	0	1	0	12.9357	0.697721	0.697429	0.0432438	1	0.000917169	41	12.9219	3.01595e-05
2	1	0	1	0	14.1102	0.674232	0.674027	0.0412655	1	0.000966719	41	14.0964	2.78141e-05
2	1	0	1	0	15.2846	0.650743	0.650512	0.0396497	1	0.00101419	41	15.2708	2.57926e-05
2	1	0	1	0	16.459	0.627255	0.626966	0.0381591	1	0.00105986	41	16.4452	2.39244e-05
2	1	0	1	0	17.6335	0.603765	0.603292	0.0366778	1	0.00110381	41	17.6197	2.21274e-05
2	1	0	1	0	18.8079	0.580276	0.580009	0.0347492	1	0.00114579	41	18.7941	2.01549e-05
2	1	0	1	0	19.9824	0.556787	0.55659	0.0315741	1	0.00118491	41	19.9686	1.75738e-05
2	1	0	1	0	21.1568	0.533298	0.532975	0.0252178	1	0.00121869	41	21.143	1.34405e-05
2	1	0	1	0	22.3313	0.50981	0.509423	0.0114562	1	0.00124125	41	22.3175	5.83604e-06
2	0	0	1	0	23.5657	0.485121	0.484468	-0.0192667	1	0.00123871	41	0.6297	-9.33412e-06
2	0	0	1	0	24.7401	0.461632	0.461481	-0.0711446	1	0.00118774	41	1.8041	-3.28318e-05
2	0	0	1	0	25.9446	0.437544	0.437274	-0.136005	1	0.00106245	40	3.0086	-5.94714e-05
2	0	0	1	0	27.119	0.414055	0.413692	-0.17678	1	0.000874493	40	4.183	-7.31323e-05
2	0	0	1	0	28.2934	0.390568	0.390221	-0.178045	1	0.000662141	40	5.3574	-6.94767e-05
2	0	0	1	0	29.4679	0.367077	0.366888	-0.157892	1	0.000463108	40	6.5319	-5.79287e-05
2	0	0	1	0	30.6423	0.343588	0.343237	-0.135047	1	0.000290353	40	7.7063	-4.63532e-05
2	0	0	1	0	31.8168	0.320099	0.319722	-0.116621	1	0.000142052	40	8.8808	-3.72863e-05
2	0	0	1	0	32.9912	0.296611	0.296293	-0.102694	1	1.2997e-05	40	10.0552	-3.04275e-05
2	0	0	1	0	34.1657	0.273122	0.272642	-0.0918471	1	-0.000101472	40	11.2297	-2.50414e-05
2	0	0	1	0	35.3401	0.249633	0.249338	-0.0838646	1	-0.000204841	40	12.4041	-2.09106e-05
2	0	0	1	0	36.5146	0.226144	0.225751	-0.0772819	1	-0.000299642	40	13.5786	-1.74465e-05
2	0	0	1	0	37.689	0.202655	0.202365	-0.072232	1	-0.000387657	40	14.753	-1.46173e-05
2	0	0	1	0	38.8634	0.179168	0.179013	-0.0679613	1	-0.000470231	40	15.9274	-1.2166e-05
2	0	0	1	0	40.0379	0.155677	0.15556	-0.0644905	1	-0.000548331	40	17.1019	-1.00321e-05
2	0	0	1	0	41.2123	0.132188	0.131816	-0.0617402	1	-0.000622714	40	18.2763	-8.13832e-06
2	0	0	1	0	42.3868	0.1087	0.108299	-0.059225	1	-0.000694001	40	19.4508	-6.41402e-06
2	0	0	1	0	43.5612	0.0852107	0.0848657	-0.0571765	1	-0.000762691	40	20.6252	-4.85232e-06
2	0	0	1	0	44.7357	0.0617218	0.0614964	-0.0555225	1	-0.000829173	40	21.7997	-3.41444e-06
2	0	0	1	0	45.9101	0.0382329	0.0380282	-0.053813	1	-0.00089374	40	22.9741	-2.04641e-06
2	0	0	1	0	47.0846	0.014744	0.0144925	-0.0525797	1	-0.000956586	40	24.1486	-7.6201e-07
2	0	0	1	1	48.2093	0.00774732	0.00753043	-0.0509308	1	-0.00101494	40	25.2733	-3.83531e-07
2	0	0	1	1	49.3838	0.031238	0.0311251	-0.0494353	1	-0.00107348	40	26.4478	-1.53868e-06
2	0	0	1	1	50.5582	0.0547251	0.0543266	-0.0484852	1	-0.00113052	40	27.6222	-2.63404e-06
2	0	0	1	1	51.7326	0.078214	0.0781661	-0.0473704	1	-0.00118632	40	28.7966	-3.70276e-06
2	0	0	1	1	52.9071	0.101703	0.101394	-0.0464744	1	-0.001241	40	29.9711	-4.71223e-06
2	0	0	1	1	54.0815	0.125192	0.124966	-0.04561	1	-0.00129467	40	31.1455	-5.69969e-06
2	0	0	1	1	55.286	0.149281	0.149107	-0.0445969	1	-0.00134878	41	32.35	-6.64972e-06
2	0	0	1	1	56.4604	0.172769	0.17253	-0.0439517	1	-0.00140074	41	33.5244	-7.58297e-06
2	0	0	1	1	57.6348	0.196258	0.196135	-0.0433365	1	-0.00145196	41	34.6988	-8.49979e-06
2	0	0	1	1	58.8093	0.219747	0.21947	-0.0427272	1	-0.00150247	41	35.8733	-9.37732e-06
2	0	0	1	1	59.9837	0.243236	0.243089	-0.0420514	1	-0.00155224	41	37.0477	-1.02223e-05
2	0	0	1	1	61.1582	0.266725	0.266607	-0.0411878	1	-0.00160111	41	38.2222	-1.09809e-05
2	0	0	1	1	62.3326	0.290214	0.290245	-0.0397315	1	-0.00164867	41	39.3966	-1.15319e-05
2	0	0	1	1	63.5071	0.313702	0.313421	-0.0367932	1	-0.00169381	41	40.5711	-1.15318e-05
2	0	0	1	1	64.6815	0.337191	0.337067	-0.0302747	1	-0.00173366	41	41.7455	-1.02046e-05
2	0	0	1	1	65.856	0.360681	0.360282	-0.0155841	1	-0.00176167	41	42.92	-5.61468e-06
2	1	0	1	1	67.0904	0.385369	0.385092	0.0171903	1	-0.0017631	41	0.5048	6.61983e-06
2	1	0	1	1	68.2648	0.408857	0.408651	0.0715268	1	-0.00171308	41	1.6792	2.92295e-05
2	1	0	1	1	69.4692	0.432946	0.432844	0.13655	1	-0.00158666	40	2.8836	5.9105e-05
2	1	0	1	1	70.5987	0.455535	0.455265	0.173112	2	-0.00140757	40	4.0131	7.88119e-05
2	1	0	1	1	71.7732	0.479025	0.478807	0.17071	2	-0.00120178	40	5.1876	8.1737e-05
2	1	0	1	1	72.9476	0.502513	0.502203	0.147456	2	-0.00101331	40	6.362	7.40527e-05
2	1	0	1	1	74.122	0.526002	0.525721	0.122883	2	-0.00085376	40	7.5364	6.46022e-05
2	1	0	1	1	75.2965	0.549491	0.549209	0.103123	2	-0.000719979	40	8.7109	5.6636e-05
2	1	0	1	1	76.4709	0.57298	0.572566	0.0886383	2	-0.000605745	40	9.8853	5.07513e-05
2	1	0	1	1	77.6454	0.596469	0.596227	0.0778598	2	-0.000505897	40	11.0598	4.64221e-05
2	1	0	1	1	78.8198	0.619958	0.619554	0.069774	2	-0.0004168	40	12.2342	4.32287e-05
2	1	0	1	1	79.9943	0.643446	0.643196	0.0633942	2	-0.000335888	40	13.4087	4.07749e-05
2	1	0	1	1	81.1687	0.666935	0.666527	0.0587849	2	-0.000261442	40	14.5831	3.91818e-05
2	1	0	1	1	82.3432	0.690425	0.690131	0.054715	2	-0.000192216	40	15.7576	3.77605e-05
2	1	0	1	1	83.4857	0.686726	0.686413	0.0546884	2	-0.000129699	40	16.9001	3.75389e-05
2	1	0	1	1	84.6601	0.663237	0.663081	0.0519084	2	-6.9724e-05	40	18.0745	3.44195e-05
2	1	0	1	1	85.8346	0.639747	0.639422	0.049595	2	-1.30279e-05	40	19.249	3.17122e-05
2	1	0	1	1	87.039	0.61566	0.615486	0.0445175	2	4.20826e-05	41	20.4534	2.73999e-05
2	1	0	1	1	88.2134	0.592171	0.591775	0.0420745	2	9.29308e-05	41	21.6278	2.48986e-05
2	1	0	1	1	89.3879	0.568682	0.568704	0.0389683	2	0.000140598	41	22.8023	2.21614e-05
2	1	0	1	1	90.5623	0.545193	0.544942	0.033982	2	0.000183681	41	23.9767	1.85182e-05
2	1	0	1	1	91.7368	0.521704	0.521203	0.0240718	2	0.000218444	41	25.1512	1.25463e-05
2	1	0	1	1	92.9112	0.498215	0.498056	0.00344447	2	0.000236075	41	26.3256	1.71554e-06
2	0	0	1	1	94.1456	0.473527	0.473217	-0.0392996	2	0.000216705	41	1.0795	-1.85972e-05
2	0	0	1	1	95.3201	0.450038	0.449577	-0.101229	2	0.00013555	41	2.254	-4.55101e-05
2	0	0	1	1	96.5245	0.425949	0.425654	-0.159943	2	-2.45524e-05	40	3.4584	-6.80804e-05
2	0	0	1	1	97.6989	0.40246	0.402083	-0.180454	2	-0.000229138	40	4.6328	-7.25572e-05
2	0	0	1	1	98.8734	0.378972	0.378614	-0.166677	2	-0.000435661	40	5.8073	-6.31064e-05
2	0	0	1	1	100.048	0.355483	0.355044	-0.142832	2	-0.000618524	40	6.9817	-5.07119e-05
2	0	0	1	1	101.222	0.331994	0.331832	-0.121972	2	-0.000774662	40	8.1562	-4.04742e-05
2	0	0	1	1	102.397	0.308505	0.308274	-0.106058	2	-0.000909038	40	9.3306	-3.2695e-05
2	0	0	1	1	103.571	0.285016	0.284806	-0.0942579	2	-0.00102706	40	10.5051	-2.68452e-05
2	0	0	1	1	104.746	0.261527	0.261295	-0.0853341	2	-0.00113282	40	11.6795	-2.22974e-05
2	0	0	1	1	105.92	0.238038	0.237846	-0.0784983	2	-0.00122927	40	12.8539	-1.86705e-05
2	0	0	1	1	107.094	0.214549	0.214223	-0.0730822	2	-0.00131847	40	14.0284	-1.56559e-05
2	0	0	1	1	108.269	0.191061	0.190797	-0.0685079	2	-0.00140189	40	15.2028	-1.30711e-05
2	0	0	1	1	109.443	0.167572	0.167234	-0.0650125	2	-0.00148063	40	16.3773	-1.08723e-05
2	0	0	1	1	110.618	0.144083	0.143783	-0.0621458	2	-0.00155552	40	17.5517	-8.93553e-06
2	0	0	1	1	111.792	0.120594	0.12041	-0.0594473	2	-0.00162721	40	18.7262	-7.15807e-06
2	0	0	1	1	112.967	0.097105	0.0968389	-0.0573004	2	-0.00169619	40	19.9006	-5.54891e-06
2	0	0	1	1	114.141	0.0736161	0.0734625	-0.0557076	2	-0.00176291	40	21.0751	-4.09242e-06
2	0	0	1	1	115.316	0.0501273	0.049906	-0.05418	2	-0.00182767	40	22.2495	-2.7039e-06
2	0	0	1	1	116.49	0.0266384	0.0264984	-0.0527205	2	-0.0018907	40	23.4239	-1.39701e-06
2	0	0	1	1	117.664	0.00314949	0.00295266	-0.0514989	2	-0.00195216	40	24.5984	-1.52059e-07
2	0	0	1	0	118.784	0.0192419	0.0189906	-0.0499411	2	-0.00200845	40	25.7181	-9.48414e-07
2	0	0	1	0	119.959	0.0427308	0.0423199	-0.0485418	2	-0.00206579	40	26.8926	-2.05428e-06
2	0	0	1	0	121.133	0.0662196	0.0661142	-0.047552	2	-0.00212182	40	28.067	-3.14386e-06
2	0	0	1	0	122.308	0.0897085	0.0894296	-0.0466531	2	-0.00217673	40	29.2415	-4.17217e-06
2	0	0	1	0	123.482	0.113197	0.112893	-0.0458689	2	-0.00223061	40	30.4159	-5.1783e-06
2	0	0	1	0	124.686	0.137286	0.137116	-0.0447547	2	-0.00228491	41	31.6203	-6.13658e-06
2	0	0	1	0	125.861	0.160775	0.16043	-0.0441046	2	-0.00233706	41	32.7948	-7.07573e-06
2	0	0	1	0	127.035	0.184264	0.184168	-0.0434926	2	-0.00238845	41	33.9692	-8.00996e-06
2	0	0	1	0	128.21	0.207753	0.207535	-0.0429077	2	-0.00243916	41	35.1437	-8.90485e-06
2	0	0	1	0	129.384	0.231242	0.23104	-0.0422861	2	-0.00248916	41	36.3181	-9.76977e-06
2	0	0	1	0	130.559	0.25473	0.254543	-0.0415167	2	-0.00253838	41	37.4926	-1.05678e-05
2	0	0	1	0	131.733	0.278219	0.277911	-0.0404861	2	-0.00258657	41	38.667	-1.12515e-05
2	0	0	1	0	132.908	0.30171	0.301895	-0.0384892	2	-0.00263305	41	39.8415	-1.16197e-05
2	0	0	1	0	134.082	0.325197	0.324702	-0.0341645	2	-0.00267602	41	41.0159	-1.10933e-05
2	0	0	1	0	135.256	0.348686	0.348153	-0.0244144	2	-0.00271115	41	42.1903	-8.49993e-06
2	0	0	1	0	136.461	0.372775	0.372476	-0.00272471	2	-0.00272886	42	43.3948	-1.01489e-06
2	1	0	1	0	137.665	0.396863	0.396522	0.0414445	2	-0.00270777	41	1.1045	1.64337e-05
2	1	0	1	0	138.84	0.420352	0.420265	0.104276	2	-0.00262329	41	2.2789	4.38235e-05
2	1	0	1	0	139.883	0.441217	0.440863	0.154917	2	-0.00248621	40	3.322	6.82971e-05