File: Python/Data/GoldElectrode/240322/Gold/240322-CVEIS-Activation-5mM_Fe2Fe3-1M_H2SO4-0000RPM-Ag_AgCl_BLF8-Au_RDE_01_CV_C15.mpt
EC-Lab ASCII FILE
Nb header lines : 60

Cyclic Voltammetry

Run on channel : 15 (SN 19485)
User :
Electrode connection : standard
Potential control : Ewe
Ewe ctrl range : min = -2.50 V, max = 2.50 V
Ewe,I filtering : 50 kHz
Safety Limits :
	Do not start on E overload
Channel : Floating
Acquisition started on : 03/22/2024 10:02:07.151
Loaded Setting File :  C:\Data\mathias\GoldElectrode\240321-CVEIS-Activation-5mM_Fe2Fe3-1M_H2SO4-0000RPM-Ag_AgCl_BLF8-Au_RDE.mps
Saved on :
	File : 240322-CVEIS-Activation-5mM_Fe2Fe3-1M_H2SO4-0000RPM-Ag_AgCl_BLF8-Au_RDE_01_CV_C15.mpr
	Directory : C:\Data\mathias\GoldElectrode\
	Host : 192.168.0.1
Device : VMP-300 (SN 0826)
Address : USB
EC-Lab for windows v11.52 (software)
Internet server v11.52 (firmware)
Command interpretor v11.52 (firmware)
Electrode material :
Initial state :
Electrolyte :
Comments :
Cable : special
Electrode surface area : 0.001 cm²
Characteristic mass : 0.001 g
Equivalent Weight : 0.000 g/eq.
Density : 0.000 g/cm3
Volume (V) : 0.001 cm³
Record EIS quality indicators
Cycle Definition : Charge/Discharge alternance
Ei (V)              0.000
vs.                 Eoc
dE/dt               200.000
dE/dt unit          mV/s
E1 (V)              1.500
vs.                 Ref
Step percent        50
N                   10
E range min (V)     -2.500
E range max (V)     2.500
I Range             Auto
I Range min         Unset
I Range max         Unset
I Range init        Unset
Bandwidth           8
E2 (V)              -0.300
vs.                 Ref
nc cycles           0
Reverse Scan        1
Ef (V)              0.000
vs.                 Eoc

mode	ox/red	error	control changes	counter inc.	time/s	control/V	Ewe/V	<I>/mA	cycle number	(Q-Qo)/C	I Range	step time/s	P/W
2	1	1	0	0	0.000000000000000E+000	0.442938	0.441928	0.000411872	1	0.0000000E+000	43	0.000000000000000E+000	1.82018e-07
2	1	0	1	0	0.1728	0.47747	0.477234	0.00421345	1	4.82765e-07	42	0.155	2.0108e-06
2	1	0	1	0	0.3177	0.506455	0.506204	0.00668392	1	1.26144e-06	42	0.2999	3.38343e-06
2	1	0	1	0	0.4926	0.541437	0.541186	0.0131056	1	2.87252e-06	41	0.4748	7.09259e-06
2	1	0	1	0	0.6375	0.570422	0.570174	0.0284231	1	5.71026e-06	41	0.6197	1.62061e-05
2	1	0	1	0	0.7824	0.599408	0.599141	0.0623414	1	1.20368e-05	41	0.7646	3.73513e-05
2	1	0	1	0	0.9574	0.63439	0.634152	0.12578	1	2.80935e-05	40	0.9396	7.97635e-05
2	1	0	1	0	1.1023	0.663375	0.663141	0.18039	1	5.03816e-05	40	1.0845	0.000119624
2	1	0	1	0	1.2472	0.69236	0.692121	0.219576	1	7.96358e-05	40	1.2294	0.000151973
2	1	0	1	0	1.3921	0.721346	0.721103	0.233979	1	0.000112795	40	1.3743	0.000168723
2	1	0	1	0	1.5371	0.750331	0.750078	0.227291	1	0.000146431	40	1.5193	0.000170486
2	1	0	1	0	1.682	0.779316	0.779079	0.209921	1	0.000178174	40	1.6642	0.000163545
2	1	0	1	0	1.8269	0.808301	0.808066	0.190374	1	0.000207162	40	1.8091	0.000153835
2	1	0	1	0	1.9718	0.837286	0.837065	0.17293	1	0.000233443	40	1.954	0.000144753
2	1	0	1	0	2.1168	0.866272	0.866032	0.15859	1	0.000257436	40	2.099	0.000137344
2	1	0	1	0	2.2617	0.895257	0.895018	0.147234	1	0.00027956	40	2.2439	0.000131777
2	1	0	1	0	2.4066	0.924242	0.923991	0.138194	1	0.000300213	40	2.3888	0.00012769
2	1	0	1	0	2.5515	0.953227	0.952986	0.13088	1	0.000319683	40	2.5337	0.000124727
2	1	0	1	0	2.6965	0.982212	0.981979	0.124898	1	0.000338209	40	2.6787	0.000122648
2	1	0	1	0	2.8414	1.0112	1.01095	0.120102	1	0.000355946	40	2.8236	0.000121418
2	1	0	1	0	2.9863	1.04018	1.03993	0.116151	1	0.000373052	40	2.9685	0.000120789
2	1	0	1	0	3.1313	1.06917	1.06895	0.112927	1	0.00038965	40	3.1135	0.000120713
2	1	0	1	0	3.2762	1.09815	1.09793	0.110576	1	0.000405831	40	3.2584	0.000121404
2	1	0	1	0	3.4211	1.12714	1.12692	0.109544	1	0.000421759	40	3.4033	0.000123447
2	1	0	1	0	3.566	1.15612	1.15588	0.111258	1	0.000437709	40	3.5482	0.000128602
2	1	0	1	0	3.711	1.18511	1.18488	0.119805	1	0.000454341	40	3.6932	0.000141954
2	1	0	1	0	3.8559	1.21409	1.21386	0.13867	1	0.000472962	40	3.8381	0.000168326
2	1	0	1	0	4.0008	1.24308	1.24282	0.163714	1	0.000494821	40	3.983	0.000203468
2	1	0	1	0	4.1457	1.27206	1.27184	0.190918	1	0.000520526	40	4.1279	0.000242817
2	1	0	1	0	4.2907	1.30105	1.3008	0.2132	1	0.000549929	40	4.2729	0.000277331
2	1	0	1	0	4.4356	1.33004	1.3298	0.226888	1	0.000581914	40	4.4178	0.000301715
2	1	0	1	0	4.5805	1.35902	1.35876	0.234165	1	0.00061538	40	4.5627	0.000318175
2	1	0	1	0	4.7254	1.38801	1.38776	0.236917	1	0.000649565	40	4.7076	0.000328784
2	1	0	1	0	4.8704	1.41699	1.41675	0.235059	1	0.000683829	40	4.8526	0.00033302
2	1	0	1	0	5.0153	1.44598	1.44575	0.232321	1	0.000717676	40	4.9975	0.000335877
2	1	0	1	0	5.1602	1.47496	1.47472	0.231747	1	0.000751263	40	5.1424	0.000341762
2	1	0	1	0	5.2937	1.49835	1.49805	0.221562	1	0.000782241	40	5.2759	0.000331912
2	1	0	1	0	5.4387	1.46936	1.46905	0.136408	1	0.000807099	40	5.4209	0.00020039
2	1	0	1	0	5.5836	1.44038	1.44008	0.102025	1	0.000824057	40	5.5658	0.000146924
2	1	0	1	0	5.7285	1.41139	1.41109	0.0845391	1	0.000837443	40	5.7107	0.000119292
2	1	0	1	0	5.8734	1.38241	1.38211	0.0744748	1	0.000848901	40	5.8556	0.000102932
2	1	0	1	0	6.0184	1.35342	1.3531	0.0681492	1	0.00085921	40	6.0006	9.22127e-05
2	1	0	1	0	6.1633	1.32444	1.32414	0.0639021	1	0.00086876	40	6.1455	8.46155e-05
2	1	0	1	0	6.3082	1.29545	1.29516	0.0607657	1	0.00087778	40	6.2904	7.8701e-05
2	1	0	1	0	6.4532	1.26646	1.2662	0.0582482	1	0.000886408	40	6.4354	7.37537e-05
2	1	0	1	0	6.5981	1.23748	1.23718	0.0562643	1	0.000894707	40	6.5803	6.96093e-05
2	1	0	1	0	6.743	1.2085	1.20821	0.0542953	1	0.000902719	40	6.7252	6.56002e-05
2	1	0	1	0	6.8879	1.17951	1.17921	0.0522129	1	0.000910444	40	6.8701	6.15699e-05
2	1	0	1	0	7.0329	1.15053	1.15023	0.0498577	1	0.000917857	40	7.0151	5.73478e-05
2	1	0	1	0	7.1778	1.12154	1.12126	0.0468794	1	0.000924876	40	7.16	5.25641e-05
2	1	0	1	0	7.3527	1.08656	1.08626	0.0417535	1	0.000932674	41	7.3349	4.53551e-05
2	1	0	1	0	7.4976	1.05757	1.05729	0.0353586	1	0.000938291	41	7.4798	3.73844e-05
2	1	0	1	0	7.6425	1.02859	1.02831	0.0252684	1	0.00094274	41	7.6247	2.59839e-05
2	1	0	1	0	7.7875	0.999604	0.999336	0.00820996	1	0.000945281	41	7.7697	8.20451e-06
2	0	0	1	0	7.9324	0.970618	0.970365	-0.0232665	1	0.000944431	41	0.095	-2.2577e-05
2	0	0	1	0	8.0773	0.941633	0.941403	-0.0830039	1	0.000937156	41	0.2399	-7.81401e-05
2	0	0	1	0	8.2522	0.906651	0.906364	-0.18578	1	0.00091375	40	0.4148	-0.000168385
2	0	0	1	0	8.3972	0.877666	0.877371	-0.187937	1	0.000885083	40	0.5598	-0.00016489
2	0	0	1	0	8.5421	0.848681	0.848397	-0.106077	1	0.000863553	40	0.7047	-8.99952e-05
2	0	0	1	0	8.687	0.819695	0.819401	-0.0421699	1	0.000853252	40	0.8496	-3.4554e-05
2	0	0	1	0	8.8619	0.784713	0.784438	-0.00177931	1	0.000849699	41	1.0245	-1.39576e-06
2	1	0	1	0	9.0068	0.755733	0.755448	0.0153768	1	0.000850815	41	0.1299	1.16163e-05
2	1	0	1	0	9.1518	0.726743	0.726437	0.0247279	1	0.000853806	41	0.2749	1.79632e-05
2	1	0	1	0	9.2967	0.697758	0.697458	0.0294921	1	0.000857775	41	0.4198	2.05695e-05
2	1	0	1	0	9.4416	0.668772	0.668467	0.0318372	1	0.00086224	41	0.5647	2.12821e-05
2	1	0	1	0	9.5866	0.639787	0.639476	0.0324482	1	0.000866917	41	0.7097	2.07499e-05
2	1	0	1	0	9.7315	0.610802	0.610504	0.0315379	1	0.000871577	41	0.8546	1.9254e-05
2	1	0	1	0	9.8764	0.581817	0.5815	0.0280203	1	0.000875939	41	0.9995	1.62938e-05
2	1	0	1	0	10.0213	0.552831	0.552535	0.0184948	1	0.00087941	41	1.1444	1.02191e-05
2	0	0	1	0	10.1663	0.523846	0.52357	-0.00413472	1	0.000880648	41	0.015	-2.16482e-06
2	0	0	1	0	10.3112	0.494861	0.494582	-0.0393526	1	0.000877494	41	0.1599	-1.94631e-05
2	0	0	1	0	10.4561	0.465876	0.465583	-0.0468289	1	0.000870715	41	0.3048	-2.18028e-05
2	0	0	1	0	10.601	0.436891	0.436601	-0.0473187	1	0.000864178	41	0.4497	-2.06594e-05
2	0	0	1	0	10.746	0.407905	0.407617	-0.0657072	1	0.000856134	41	0.5947	-2.67833e-05
2	0	0	1	0	10.8909	0.37892	0.378651	-0.0964933	1	0.000844536	41	0.7396	-3.65373e-05
2	0	0	1	0	11.0658	0.343938	0.343644	-0.151997	1	0.000823222	40	0.9145	-5.2233e-05
2	0	0	1	0	11.2107	0.314953	0.314657	-0.211598	1	0.000796993	40	1.0594	-6.65806e-05
2	0	0	1	0	11.3557	0.285968	0.285674	-0.276735	1	0.000761579	40	1.2044	-7.90561e-05
2	0	0	1	0	11.5006	0.256982	0.256696	-0.335017	1	0.000717075	40	1.3493	-8.59976e-05
2	0	0	1	0	11.6455	0.227997	0.227693	-0.374163	1	0.000665392	40	1.4942	-8.51943e-05
2	0	0	1	0	11.7904	0.199012	0.198697	-0.388621	1	0.000609834	40	1.6391	-7.72179e-05
2	0	0	1	0	11.9354	0.170027	0.169704	-0.382297	1	0.000553747	40	1.7841	-6.48772e-05
2	0	0	1	0	12.0803	0.141041	0.140722	-0.364102	1	0.000499579	40	1.929	-5.12371e-05
2	0	0	1	0	12.2252	0.112056	0.111732	-0.341494	1	0.000448436	40	2.0739	-3.81559e-05
2	0	0	1	0	12.3701	0.0830711	0.0827481	-0.318714	1	0.000400621	40	2.2188	-2.63729e-05
2	0	0	1	0	12.5151	0.0540858	0.0537733	-0.297445	1	0.000355978	40	2.3638	-1.59946e-05
2	0	0	1	0	12.66	0.0251006	0.0248048	-0.278369	1	0.000314289	40	2.5087	-6.90489e-06
2	0	0	1	0	12.8049	-0.00388459	-0.00422193	-0.261327	1	0.000275216	40	2.6536	1.1033e-06
2	0	0	1	0	12.9498	-0.0328698	-0.033165	-0.246319	1	0.000238461	40	2.7985	8.16919e-06
2	0	0	1	0	13.0948	-0.0618551	-0.0621448	-0.233086	1	0.000203726	40	2.9435	1.44851e-05
2	0	0	1	0	13.2397	-0.0908403	-0.09115	-0.221195	1	0.000170835	40	3.0884	2.01619e-05
2	0	0	1	0	13.3846	-0.119826	-0.120131	-0.210377	1	0.000139581	40	3.2333	2.52729e-05
2	0	0	1	0	13.5295	-0.148811	-0.149129	-0.200752	1	0.000109806	40	3.3782	2.9938e-05
2	0	0	1	0	13.6745	-0.177796	-0.178119	-0.192013	1	8.13431e-05	40	3.5232	3.42011e-05
2	0	0	1	0	13.8194	-0.206781	-0.207115	-0.184278	1	5.40934e-05	40	3.6681	3.81669e-05
2	0	0	1	0	13.9643	-0.235766	-0.236095	-0.177286	1	2.79104e-05	40	3.813	4.18564e-05
2	0	0	1	0	14.1092	-0.264747	-0.265049	-0.171343	1	2.66853e-06	40	3.9579	4.54144e-05
2	0	0	1	0	14.2542	-0.293737	-0.294056	-0.166673	1	-2.18115e-05	40	4.1029	4.90112e-05
2	0	0	1	1	14.3887	-0.279344	-0.279603	-0.153993	1	-4.33076e-05	40	4.2374	4.3057e-05
2	0	0	1	1	14.5336	-0.250359	-0.250631	-0.146446	1	-6.50396e-05	40	4.3823	3.67037e-05
2	0	0	1	1	14.6785	-0.221374	-0.221637	-0.140522	1	-8.58162e-05	40	4.5272	3.11449e-05
2	0	0	1	1	14.8235	-0.192389	-0.192654	-0.135185	1	-0.000105801	40	4.6722	2.60439e-05
2	0	0	1	1	14.9684	-0.163403	-0.163645	-0.130219	1	-0.000125029	40	4.8171	2.13097e-05
2	0	0	1	1	15.1133	-0.134418	-0.134642	-0.125332	1	-0.000143541	40	4.962	1.6875e-05
2	0	0	1	1	15.2582	-0.105433	-0.105677	-0.120356	1	-0.000161342	40	5.1069	1.27189e-05
2	0	0	1	1	15.4032	-0.0764476	-0.0767006	-0.115257	1	-0.000178427	40	5.2519	8.84027e-06
2	0	0	1	1	15.5481	-0.0474624	-0.0477291	-0.1099	1	-0.000194744	40	5.3968	5.24542e-06
2	0	0	1	1	15.693	-0.0184772	-0.0187273	-0.104156	1	-0.000210258	40	5.5417	1.95056e-06
2	0	0	1	1	15.838	0.0105262	0.0102801	-0.0978589	1	-0.000224915	40	5.6867	-1.006e-06
2	0	0	1	1	15.9829	0.0394933	0.039253	-0.0911712	1	-0.000238618	40	5.8316	-3.57874e-06
2	0	0	1	1	16.1278	0.0684785	0.0682236	-0.0838207	1	-0.0002513	40	5.9765	-5.71855e-06
2	0	0	1	1	16.2727	0.0974637	0.0972053	-0.075997	1	-0.000262884	40	6.1214	-7.38732e-06
2	0	0	1	1	16.4177	0.126449	0.126196	-0.0678281	1	-0.000273312	40	6.2664	-8.55966e-06
2	0	0	1	1	16.5626	0.155434	0.155178	-0.0594996	1	-0.000282533	40	6.4113	-9.23304e-06
2	0	0	1	1	16.7075	0.184419	0.184153	-0.0514088	1	-0.000290559	40	6.5562	-9.46708e-06
2	0	0	1	1	16.8524	0.213405	0.213171	-0.0439341	1	-0.000297457	40	6.7011	-9.36547e-06
2	0	0	1	1	17.0273	0.248387	0.24814	-0.0359945	1	-0.000304458	41	6.876	-8.93168e-06
2	0	0	1	1	17.1723	0.277372	0.277131	-0.0302066	1	-0.000309253	41	7.021	-8.3712e-06
2	0	0	1	1	17.3172	0.306357	0.306111	-0.0245704	1	-0.000313225	41	7.1659	-7.52127e-06
2	0	0	1	1	17.4621	0.335342	0.335085	-0.0180917	1	-0.000316332	41	7.3108	-6.06224e-06
2	0	0	1	1	17.607	0.364328	0.364096	-0.00867188	1	-0.000318321	41	7.4557	-3.1574e-06
2	1	0	1	1	17.752	0.393313	0.393048	0.00754534	1	-0.000318519	41	0.05	2.96568e-06
2	1	0	1	1	17.8969	0.422298	0.42203	0.0381931	1	-0.00031544	41	0.1949	1.61187e-05
2	1	0	0	1	17.9956	0.442038	0.441714	0.0751146	1	-0.000310007	41	0.2936	3.31792e-05