File: Python/Data/GoldElectrode/240319/Gold/240319-CVEIS_PostActivation-Fe2Fe3_5mM-HCl1M-0RPM-Ag_AgCl_BLF8-Au_RDE_02_PEIS_C15.mpt
EC-Lab ASCII FILE
Nb header lines : 66

Potentio Electrochemical Impedance Spectroscopy

Run on channel : 15 (SN 19485)
User :
Electrode connection : standard
Potential control : Ewe
Ewe ctrl range : min = -1.00 V, max = 1.00 V
Ewe,I filtering : <None>
Safety Limits :
	Do not start on E overload
Channel : Floating
Acquisition started on : 03/19/2024 15:57:04.315
Loaded Setting File :  NONE
Saved on :
	File : 240319-CVEIS_PostActivation-Fe2Fe3_5mM-HCl1M-0RPM-Ag_AgCl_BLF8-Au_RDE_02_PEIS_C15.mpr
	Directory : C:\Data\mathias\GoldElectrode\
	Host : 192.168.0.1
Device : VMP-300 (SN 0826)
Address : USB
EC-Lab for windows v11.52 (software)
Internet server v11.52 (firmware)
Command interpretor v11.52 (firmware)
Electrode material :
Initial state :
Electrolyte :
Comments :
Cable : special
Electrode surface area : 0.001 cm²
Characteristic mass : 0.001 g
Equivalent Weight : 0.000 g/eq.
Density : 0.000 g/cm3
Volume (V) : 0.001 cm³
Record EIS quality indicators
Cycle Definition : Charge/Discharge alternance
Mode                Single sine
E (V)               0.0000
vs.                 Eoc
tE (h:m:s)          0:01:0.0000
record              0
dI                  0.000
unit dI             mA
dt (s)              0.000
fi                  400.000
unit fi             kHz
ff                  100.000
unit ff             mHz
Nd                  10
Points              per decade
spacing             Logarithmic
Va (mV)             5.0
pw                  0.10
Na                  3
corr                0
E range min (V)     -1.000
E range max (V)     1.000
I Range             Auto
Bandwidth           8
nc cycles           2
goto Ns'            0
nr cycles           0
inc. cycle          1

freq/Hz	Re(Z)/Ohm	-Im(Z)/Ohm	|Z|/Ohm	Phase(Z)/deg	time/s	<Ewe>/V	<I>/mA	Cs/µF	Cp/µF	cycle number	I Range	|Ewe|/V	|I|/A	Ns	(Q-Qo)/mA.h	THD Ewe/%	NSD Ewe/%	NSR Ewe/%	|Ewe h2|/V	|Ewe h3|/V	|Ewe h4|/V	|Ewe h5|/V	|Ewe h6|/V	|Ewe h7|/V	THD I/%	NSD I/%	NSR I/%	|I h2|/A	|I h3|/A	|I h4|/A	|I h5|/A	|I h6|/A	|I h7|/A	Re(Y)/Ohm-1	Im(Y)/Ohm-1	|Y|/Ohm-1	Phase(Y)/deg	Re(C)/nF	Im(C)/nF	|C|/nF	Phase(C)/deg	Re(M)	Im(M)	|M|	Phase(M)/deg	Re(Permittivity)	Im(Permittivity)	|Permittivity|	Phase(Permittivity)/deg	Re(Resistivity)/Ohm.cm	Im(Resistivity)/Ohm.cm	|Resistivity|/Ohm.cm	Phase(Resistivity)/deg	Re(Conductivity)/mS/cm	Im(Conductivity)/mS/cm	|Conductivity|/mS/cm	Phase(Conductivity)/deg	Tan(Delta)	Loss Angle(Delta)/deg	dq/mA.h
399996	3.37575	1.41151	3.65897	-22.6914	203.374	0.459561	-0.0130506	0.28189	0.04195	1	38	0.00494287	0.00135089	0	7.73631e-05	-1	-1	-1	0	0	0	0	0	0	-1	-1	-1	0	0	0	0	0	0	0.252147	0.105431	0.273301	22.6914	41.95	100.327	108.744	-67.3086	0.0000000E+000	0.0000000E+000	0.0000000E+000	67.3086	0.0000000E+000	0.0000000E+000	0.0000000E+000	-67.3086	0.0000000E+000	0.0000000E+000	0.0000000E+000	-22.6914	0.0000000E+000	0.0000000E+000	0.0000000E+000	22.6914	2.39158	67.3086	7.73631e-05
20032.3	3.74702	0.819331	3.83555	-12.3343	218.288	0.459555	-0.000678018	9.69684	0.442479	1	38	0.00517628	0.00134955	0	6.06283e-05	1.83568	0.470844	29.7134	4.00592e-05	3.28662e-05	4.01586e-05	3.22362e-05	3.2409e-05	3.46116e-05	0.144024	0.0419826	2.44118	8.50171e-07	7.74182e-07	7.23028e-07	6.67218e-07	9.31366e-07	5.25001e-07	0.254701	0.0556934	0.260719	12.3343	442.479	2023.58	2071.39	-77.6657	0.0000000E+000	0.0000000E+000	0.0000000E+000	77.6657	0.0000000E+000	0.0000000E+000	0.0000000E+000	-77.6657	0.0000000E+000	0.0000000E+000	0.0000000E+000	-12.3343	0.0000000E+000	0.0000000E+000	0.0000000E+000	12.3343	4.57327	77.6657	-9.06016e-07
1002.75	6.10058	6.33338	8.79368	-46.0727	233.45	0.459473	-0.00184361	25.0606	12.9993	1	38	0.00527405	0.000599755	0	5.5924e-05	1.58191	0.62658	28.0153	2.18236e-05	4.5815e-05	2.91305e-05	3.66583e-05	2.60677e-05	2.0112e-05	0.503805	0.175667	5.48104	2.0046e-06	1.4031e-06	6.20048e-07	9.61425e-07	5.45226e-07	7.05136e-07	0.0788914	0.081902	0.113718	46.0727	12999.4	12521.5	18049.1	-43.9273	0.0000000E+000	0.0000000E+000	0.0000000E+000	43.9273	0.0000000E+000	0.0000000E+000	0.0000000E+000	-43.9273	0.0000000E+000	0.0000000E+000	0.0000000E+000	-46.0727	0.0000000E+000	0.0000000E+000	0.0000000E+000	46.0727	0.963241	43.9273	-3.55507e-07
50.2089	34.2352	20.4217	39.8635	-30.8166	247.99	0.459471	0.000379627	155.22	40.7363	1	39	0.00506611	0.000127086	0	5.57461e-05	1.7317	1.13584	29.3661	2.61912e-05	3.9451e-05	4.38512e-05	3.15134e-05	2.26828e-05	3.45232e-05	0.709426	0.337507	12.508	3.19178e-07	2.88632e-07	3.83764e-07	4.32565e-07	3.45846e-07	3.25635e-07	0.0215438	0.0128511	0.0250856	30.8166	40736.3	68290.8	79517.8	-59.1834	0.0000000E+000	0.0000000E+000	0.0000000E+000	59.1834	0.0000000E+000	0.0000000E+000	0.0000000E+000	-59.1834	0.0000000E+000	0.0000000E+000	0.0000000E+000	-30.8166	0.0000000E+000	0.0000000E+000	0.0000000E+000	30.8166	1.67641	59.1834	1.47236e-07
2.51368	85.2092	49.4374	98.5122	-30.1218	267.288	0.459467	6.11384e-05	1280.72	322.542	1	40	0.00507122	5.14781e-05	0	5.6072e-05	0.725835	0.504064	19.6314	6.24109e-06	1.6711e-05	1.70372e-05	1.72704e-05	1.15218e-05	1.59491e-05	0.364071	0.222878	2.48038	1.5995e-07	3.44792e-08	3.58424e-08	6.94665e-08	2.55711e-08	2.57934e-08	0.00878024	0.00509419	0.010151	30.1218	322542	555926	642718	-59.8782	0.0000000E+000	0.0000000E+000	0.0000000E+000	59.8782	0.0000000E+000	0.0000000E+000	0.0000000E+000	-59.8782	0.0000000E+000	0.0000000E+000	0.0000000E+000	-30.1218	0.0000000E+000	0.0000000E+000	0.0000000E+000	30.1218	1.72358	59.8782	2.21686e-07
0.125939	244.611	192.064	311.003	-38.1383	498.746	0.459487	0.000220089	6579.85	2509.44	1	41	0.00506266	1.62785e-05	0	5.95223e-05	0.216204	0.109448	4.04457	5.66684e-06	5.64153e-06	2.73788e-06	4.93484e-06	1.73142e-06	2.67757e-06	0.30151	0.244904	0.774837	3.12739e-08	1.6355e-08	1.01502e-08	2.04371e-08	6.22638e-09	8.44151e-09	0.00252898	0.00198571	0.0032154	38.1383	2.50944e+06	3.196e+06	4.06346e+06	-51.8617	0.0000000E+000	0.0000000E+000	0.0000000E+000	51.8617	0.0000000E+000	0.0000000E+000	0.0000000E+000	-51.8617	0.0000000E+000	0.0000000E+000	0.0000000E+000	-38.1383	0.0000000E+000	0.0000000E+000	0.0000000E+000	38.1383	1.27359	51.8617	8.91296e-07
31751	3.59596	0.743007	3.67192	-11.6743	575.496	0.459604	-0.0011193	6.74636	0.276229	2	38	0.00514006	0.00139983	0	5.04585e-05	1.30992	0.776826	24.6132	1.88272e-05	2.79484e-05	3.00496e-05	1.65023e-05	3.65813e-05	1.87968e-05	0.140671	0.102649	2.14182	9.62556e-07	9.32555e-07	5.10335e-07	5.37632e-07	8.38389e-07	5.83061e-07	0.266704	0.055107	0.272337	11.6743	276.229	1336.88	1365.12	-78.3257	0.0000000E+000	0.0000000E+000	0.0000000E+000	78.3257	0.0000000E+000	0.0000000E+000	0.0000000E+000	-78.3257	0.0000000E+000	0.0000000E+000	0.0000000E+000	-11.6743	0.0000000E+000	0.0000000E+000	0.0000000E+000	11.6743	4.83974	78.3257	-3.22753e-06
1589.49	5.16843	4.53693	6.87724	-41.2772	590.736	0.459455	-0.0023966	22.0699	9.60496	2	38	0.00543665	0.000790528	0	4.35878e-05	1.17559	0.956723	22.5028	2.72886e-05	2.14859e-05	2.05131e-05	2.89969e-05	2.32664e-05	2.21924e-05	0.296406	0.119116	3.80505	1.54771e-06	8.74942e-07	8.0588e-07	7.17624e-07	6.75341e-07	3.30602e-07	0.109277	0.0959254	0.145407	41.2772	9604.96	10941.9	14559.5	-48.7228	0.0000000E+000	0.0000000E+000	0.0000000E+000	48.7228	0.0000000E+000	0.0000000E+000	0.0000000E+000	-48.7228	0.0000000E+000	0.0000000E+000	0.0000000E+000	-41.2772	0.0000000E+000	0.0000000E+000	0.0000000E+000	41.2772	1.13919	48.7228	-1.32521e-06
79.6177	29.5992	20.1844	35.8263	-34.291	605.345	0.459472	0.000149076	99.0364	31.4357	2	39	0.00508332	0.000141888	0	4.23857e-05	1.45368	0.605718	25.249	1.68067e-05	2.62889e-05	3.57733e-05	1.85249e-05	2.3711e-05	4.06436e-05	0.55127	0.234986	8.87654	4.59348e-07	2.03238e-07	3.96411e-07	1.98143e-07	1.07675e-07	2.24014e-07	0.0230609	0.0157258	0.0279125	34.291	31435.7	46098.6	55796.8	-55.709	0.0000000E+000	0.0000000E+000	0.0000000E+000	55.709	0.0000000E+000	0.0000000E+000	0.0000000E+000	-55.709	0.0000000E+000	0.0000000E+000	0.0000000E+000	-34.291	0.0000000E+000	0.0000000E+000	0.0000000E+000	34.291	1.46644	55.709	2.383e-07
3.98597	76.0447	42.0055	86.8749	-28.9154	621.681	0.459486	0.000250092	950.56	222.23	2	40	0.00505348	5.81696e-05	0	4.44516e-05	1.10244	0.581733	19.2216	2.03354e-05	2.76583e-05	2.45111e-05	2.06388e-05	2.02504e-05	1.70683e-05	0.281579	0.108678	2.06895	1.1849e-07	7.92223e-08	4.53019e-08	5.4747e-08	1.95551e-08	1.08077e-08	0.0100758	0.00556567	0.0115108	28.9154	222230	402314	459612	-61.0846	0.0000000E+000	0.0000000E+000	0.0000000E+000	61.0846	0.0000000E+000	0.0000000E+000	0.0000000E+000	-61.0846	0.0000000E+000	0.0000000E+000	0.0000000E+000	-28.9154	0.0000000E+000	0.0000000E+000	0.0000000E+000	28.9154	1.81035	61.0846	1.32582e-07
0.199573	206.335	154.059	257.504	-36.7466	770.589	0.459493	0.000369096	5176.43	1852.83	2	41	0.00506198	1.96578e-05	0	5.41302e-05	0.331491	0.162948	5.10665	6.77118e-06	7.20107e-06	6.45853e-06	6.76201e-06	6.54045e-06	3.66899e-06	0.345239	0.244376	0.63027	5.07659e-08	1.51357e-08	1.15115e-08	2.95802e-08	1.0277e-08	7.51467e-09	0.00311175	0.00232337	0.00388343	36.7466	1.85283e+06	2.48154e+06	3.09694e+06	-53.2534	0.0000000E+000	0.0000000E+000	0.0000000E+000	53.2534	0.0000000E+000	0.0000000E+000	0.0000000E+000	-53.2534	0.0000000E+000	0.0000000E+000	0.0000000E+000	-36.7466	0.0000000E+000	0.0000000E+000	0.0000000E+000	36.7466	1.33933	53.2534	5.90867e-07
50326.6	3.45567	0.695364	3.52493	-11.3774	932.861	0.459596	-0.000726425	4.5479	0.176983	3	38	0.00515508	0.00146246	0	6.7236e-05	1.27937	1.09056	29.3973	1.93178e-05	2.67914e-05	2.18237e-05	1.95782e-05	1.42809e-05	4.28499e-05	0.122255	0.0737604	2.22141	7.2679e-07	7.95244e-07	3.226e-07	5.46511e-07	9.98598e-07	6.37117e-07	0.278119	0.0559642	0.283693	11.3774	176.983	879.534	897.164	-78.6226	0.0000000E+000	0.0000000E+000	0.0000000E+000	78.6226	0.0000000E+000	0.0000000E+000	0.0000000E+000	-78.6226	0.0000000E+000	0.0000000E+000	0.0000000E+000	-11.3774	0.0000000E+000	0.0000000E+000	0.0000000E+000	11.3774	4.96958	78.6226	-2.23097e-06
2519.19	4.63412	3.16277	5.61054	-34.3134	948.188	0.459435	-0.00208193	19.9752	6.34772	3	38	0.00533413	0.000950734	0	6.28988e-05	1.09208	0.705279	27.8164	1.30658e-05	2.4156e-05	3.04517e-05	1.46625e-05	1.54943e-05	2.83747e-05	0.242169	0.17225	3.50398	1.66815e-06	4.75089e-07	7.0844e-07	8.28146e-07	3.68133e-07	6.49865e-07	0.147217	0.100475	0.178236	34.3134	6347.72	9300.72	11260.4	-55.6866	0.0000000E+000	0.0000000E+000	0.0000000E+000	55.6866	0.0000000E+000	0.0000000E+000	0.0000000E+000	-55.6866	0.0000000E+000	0.0000000E+000	0.0000000E+000	-34.3134	0.0000000E+000	0.0000000E+000	0.0000000E+000	34.3134	1.46521	55.6866	-3.27975e-07
126.171	24.3829	19.5121	31.2289	-38.6681	962.82	0.45948	0.00027656	64.6483	25.2377	3	39	0.00497415	0.00015928	0	6.08632e-05	1.68867	0.894847	29.8375	3.54899e-05	4.75335e-05	2.4153e-05	2.61934e-05	3.34132e-05	2.39957e-05	0.715014	0.299441	9.72998	7.4716e-07	3.17545e-07	1.36058e-07	5.33789e-07	3.44065e-07	3.32452e-07	0.0250018	0.0200074	0.0320216	38.6681	25237.7	31537.8	40392.8	-51.3319	0.0000000E+000	0.0000000E+000	0.0000000E+000	51.3319	0.0000000E+000	0.0000000E+000	0.0000000E+000	-51.3319	0.0000000E+000	0.0000000E+000	0.0000000E+000	-38.6681	0.0000000E+000	0.0000000E+000	0.0000000E+000	38.6681	1.24963	51.3319	2.40556e-07
6.31569	69.2064	36.1315	78.0705	-27.5683	977.255	0.459447	0.000544012	697.451	149.387	3	39	0.00492009	6.30211e-05	0	6.27893e-05	0.975556	0.65272	21.1389	1.93376e-05	1.46026e-05	1.90575e-05	1.5206e-05	2.65515e-05	1.23238e-05	0.84224	0.58149	17.1444	2.0108e-07	1.30787e-07	2.10611e-07	1.85158e-07	2.79993e-07	1.77878e-07	0.0113546	0.00592805	0.0128089	27.5683	149387	286135	322784	-62.4317	0.0000000E+000	0.0000000E+000	0.0000000E+000	62.4317	0.0000000E+000	0.0000000E+000	0.0000000E+000	-62.4317	0.0000000E+000	0.0000000E+000	0.0000000E+000	-27.5683	0.0000000E+000	0.0000000E+000	0.0000000E+000	27.5683	1.9154	62.4317	9.37792e-07
0.316193	175.644	124.177	215.106	-35.2596	1074.73	0.459469	0.000485248	4053.47	1350.84	3	41	0.00490657	2.281e-05	0	7.29328e-05	0.563036	0.326944	9.92733	1.00304e-05	9.2282e-06	6.73643e-06	8.23044e-06	1.28844e-05	1.53436e-05	0.36705	0.1409	0.834165	7.34172e-08	1.80665e-08	9.67408e-09	2.78175e-08	5.53545e-09	8.35809e-09	0.00379601	0.00268371	0.00464887	35.2596	1.35084e+06	1.91071e+06	2.34e+06	-54.7404	0.0000000E+000	0.0000000E+000	0.0000000E+000	54.7404	0.0000000E+000	0.0000000E+000	0.0000000E+000	-54.7404	0.0000000E+000	0.0000000E+000	0.0000000E+000	-35.2596	0.0000000E+000	0.0000000E+000	0.0000000E+000	35.2596	1.41447	54.7404	-9.86666e-07
0.0999518	273.914	215.88	348.759	-38.2427	1279.31	0.459461	0.000603718	7375.95	2826.11	3	41	0.00490479	1.40635e-05	0	0.000106772	0.304064	0.167422	6.14977	6.0785e-06	8.12195e-06	3.9038e-06	6.63236e-06	5.05001e-06	2.81362e-06	0.357776	0.181259	0.966623	4.39525e-08	9.59747e-09	5.4761e-09	1.98772e-08	3.95088e-09	4.40323e-09	0.00225197	0.00177484	0.00286731	38.2427	2.82611e+06	3.58585e+06	4.56566e+06	-51.7573	0.0000000E+000	0.0000000E+000	0.0000000E+000	51.7573	0.0000000E+000	0.0000000E+000	0.0000000E+000	-51.7573	0.0000000E+000	0.0000000E+000	0.0000000E+000	-38.2427	0.0000000E+000	0.0000000E+000	0.0000000E+000	38.2427	1.26883	51.7573	6.10543e-06