File: Python/Data/GoldElectrode/240319/Gold/240319-CVEIS_Activation-0p5H2SO4-Ag_AgCl_BLF8-Au_RDE-80cycles_08_PEIS_C15.mpt
EC-Lab ASCII FILE
Nb header lines : 66

Potentio Electrochemical Impedance Spectroscopy

Run on channel : 15 (SN 19485)
User :
Electrode connection : standard
Potential control : Ewe
Ewe ctrl range : min = -2.50 V, max = 2.50 V
Ewe,I filtering : 50 kHz
Safety Limits :
	Do not start on E overload
Channel : Floating
Acquisition started on : 03/19/2024 13:27:19.036
Loaded Setting File :  C:\Data\mathias\GoldElectrode\240313-CVEIS_Activation-0p5H2SO4-Ag_AgCl_BLF8-Au_RDE-80cycles.mps
Saved on :
	File : 240319-CVEIS_Activation-0p5H2SO4-Ag_AgCl_BLF8-Au_RDE-80cycles_08_PEIS_C15.mpr
	Directory : C:\Data\mathias\GoldElectrode\
	Host : 192.168.0.1
Device : VMP-300 (SN 0826)
Address : USB
EC-Lab for windows v11.52 (software)
Internet server v11.52 (firmware)
Command interpretor v11.52 (firmware)
Electrode material :
Initial state :
Electrolyte :
Comments :
Cable : special
Electrode surface area : 0.001 cm²
Characteristic mass : 0.001 g
Equivalent Weight : 0.000 g/eq.
Density : 0.000 g/cm3
Volume (V) : 0.001 cm³
Record EIS quality indicators
Cycle Definition : Charge/Discharge alternance
Mode                Single sine
E (V)               0.0000
vs.                 Eoc
tE (h:m:s)          0:00:0.0000
record              0
dI                  0.000
unit dI             mA
dt (s)              0.000
fi                  100.000
unit fi             kHz
ff                  100.000
unit ff             Hz
Nd                  10
Points              per decade
spacing             Logarithmic
Va (mV)             5.0
pw                  0.10
Na                  2
corr                0
E range min (V)     -2.500
E range max (V)     2.500
I Range             Auto
Bandwidth           8
nc cycles           0
goto Ns'            0
nr cycles           0
inc. cycle          0

freq/Hz	Re(Z)/Ohm	-Im(Z)/Ohm	|Z|/Ohm	Phase(Z)/deg	time/s	<Ewe>/V	<I>/mA	Cs/µF	Cp/µF	cycle number	I Range	|Ewe|/V	|I|/A	Ns	(Q-Qo)/mA.h	THD Ewe/%	NSD Ewe/%	NSR Ewe/%	|Ewe h2|/V	|Ewe h3|/V	|Ewe h4|/V	|Ewe h5|/V	|Ewe h6|/V	|Ewe h7|/V	THD I/%	NSD I/%	NSR I/%	|I h2|/A	|I h3|/A	|I h4|/A	|I h5|/A	|I h6|/A	|I h7|/A	Re(Y)/Ohm-1	Im(Y)/Ohm-1	|Y|/Ohm-1	Phase(Y)/deg	Re(C)/nF	Im(C)/nF	|C|/nF	Phase(C)/deg	Re(M)	Im(M)	|M|	Phase(M)/deg	Re(Permittivity)	Im(Permittivity)	|Permittivity|	Phase(Permittivity)/deg	Re(Resistivity)/Ohm.cm	Im(Resistivity)/Ohm.cm	|Resistivity|/Ohm.cm	Phase(Resistivity)/deg	Re(Conductivity)/mS/cm	Im(Conductivity)/mS/cm	|Conductivity|/mS/cm	Phase(Conductivity)/deg	Tan(Delta)	Loss Angle(Delta)/deg	dq/mA.h
100004	7.47863	0.648812	7.50672	-4.95831	1162.34	0.630993	-0.0208819	2.45293	0.0183241	1	38	0.00481675	0.000641659	0	-5.72502e-06	4.67562	0.984771	79.3048	6.9072e-05	6.60669e-05	8.74465e-05	6.67024e-05	0.000150389	7.58442e-05	0.304864	0.129793	6.01669	5.62582e-07	5.62603e-07	9.56584e-07	6.51964e-07	1.31398e-06	1.6483e-07	0.132715	0.0115138	0.133214	4.95831	18.3241	211.215	212.009	-85.0417	0.0000000E+000	0.0000000E+000	0.0000000E+000	85.0417	0.0000000E+000	0.0000000E+000	0.0000000E+000	-85.0417	0.0000000E+000	0.0000000E+000	0.0000000E+000	-4.95831	0.0000000E+000	0.0000000E+000	0.0000000E+000	4.95831	11.5267	85.0417	-5.72502e-06
63093.8	7.74222	0.590089	7.76468	-4.35849	1163.97	0.631026	-0.01028	4.2748	0.024689	1	38	0.00522239	0.000672583	0	-1.1201e-05	4.01122	2.70446	72.6023	4.60395e-05	5.57511e-05	5.85067e-05	0.000158517	8.11245e-05	3.64071e-05	0.326231	0.224642	5.67646	1.3223e-06	1.19776e-06	6.23782e-07	3.63262e-07	4.44523e-07	8.50686e-07	0.128416	0.00978748	0.128788	4.35849	24.689	323.931	324.87	-85.6415	0.0000000E+000	0.0000000E+000	0.0000000E+000	85.6415	0.0000000E+000	0.0000000E+000	0.0000000E+000	-85.6415	0.0000000E+000	0.0000000E+000	0.0000000E+000	-4.35849	0.0000000E+000	0.0000000E+000	0.0000000E+000	4.35849	13.1204	85.6415	-3.01349e-06
39814.1	7.72953	0.678928	7.75929	-5.01973	1165.59	0.631049	-0.010874	5.88789	0.0450779	1	38	0.00520949	0.000671388	0	-1.71591e-05	6.70748	1.68554	72.8689	0.000288147	6.52704e-05	5.66816e-05	0.000112401	9.97313e-05	4.59629e-05	0.566758	0.105682	5.54187	2.50131e-06	1.28536e-06	1.53048e-06	3.96408e-07	9.08848e-07	8.17445e-07	0.128384	0.0112767	0.128878	5.01973	45.0779	513.207	515.183	-84.9803	0.0000000E+000	0.0000000E+000	0.0000000E+000	84.9803	0.0000000E+000	0.0000000E+000	0.0000000E+000	-84.9803	0.0000000E+000	0.0000000E+000	0.0000000E+000	-5.01973	0.0000000E+000	0.0000000E+000	0.0000000E+000	5.01973	11.3849	84.9803	-3.64102e-06
25116.9	7.69539	0.956661	7.75463	-7.08643	1167.22	0.631089	-0.0107995	6.62363	0.100807	1	38	0.00514575	0.000663571	0	-2.34069e-05	4.3976	2.17122	74.3728	0.000120167	7.85334e-05	6.67834e-05	8.29746e-05	5.55624e-05	9.61562e-05	0.389662	0.199491	5.71034	1.48973e-06	9.65679e-07	1.29546e-06	3.86137e-07	9.82938e-07	7.20777e-07	0.12797	0.0159088	0.128955	7.08643	100.807	810.891	817.133	-82.9136	0.0000000E+000	0.0000000E+000	0.0000000E+000	82.9136	0.0000000E+000	0.0000000E+000	0.0000000E+000	-82.9136	0.0000000E+000	0.0000000E+000	0.0000000E+000	-7.08643	0.0000000E+000	0.0000000E+000	0.0000000E+000	7.08643	8.04401	82.9136	-3.5731e-06
15847.7	8.01377	1.31184	8.12043	-9.29673	1168.85	0.630984	-0.0094012	7.65552	0.199791	1	38	0.00526884	0.000648837	0	-2.94059e-05	2.85387	1.91516	71.6196	4.8951e-05	4.65268e-05	5.56391e-05	5.70959e-05	7.92782e-05	7.10664e-05	0.294725	0.194151	5.9759	8.82942e-07	1.07013e-06	5.70157e-07	8.15202e-07	5.69056e-07	4.24786e-07	0.121529	0.019894	0.123146	9.29673	199.791	1220.49	1236.73	-80.7033	0.0000000E+000	0.0000000E+000	0.0000000E+000	80.7033	0.0000000E+000	0.0000000E+000	0.0000000E+000	-80.7033	0.0000000E+000	0.0000000E+000	0.0000000E+000	-9.29673	0.0000000E+000	0.0000000E+000	0.0000000E+000	9.29673	6.10882	80.7033	-3.16926e-06
10002.2	7.97276	1.94715	8.20709	-13.7244	1170.48	0.631029	-0.00997468	8.17192	0.459986	1	38	0.00514567	0.000626979	0	-3.3155e-05	2.8308	2.28287	73.6594	6.04138e-05	5.52462e-05	1.63041e-05	7.81375e-05	6.01854e-05	3.85987e-05	0.263582	0.0624984	6.04529	5.15176e-07	7.58114e-07	2.99889e-07	1.03981e-06	2.86833e-07	7.65411e-07	0.118367	0.0289082	0.121846	13.7244	459.986	1883.45	1938.81	-76.2756	0.0000000E+000	0.0000000E+000	0.0000000E+000	76.2756	0.0000000E+000	0.0000000E+000	0.0000000E+000	-76.2756	0.0000000E+000	0.0000000E+000	0.0000000E+000	-13.7244	0.0000000E+000	0.0000000E+000	0.0000000E+000	13.7244	4.09458	76.2756	-9.2671e-07
6307.74	8.18413	2.77479	8.64173	-18.729	1172.23	0.630891	-0.00931555	9.09319	0.93751	1	38	0.00495742	0.00057366	0	-3.71011e-05	8.14841	2.66403	75.1694	6.46914e-05	0.00010141	8.02502e-05	0.000364399	8.25623e-05	2.37232e-05	0.555721	0.286817	6.51267	7.38608e-07	1.03437e-06	8.83948e-07	2.59819e-06	5.55138e-07	6.2804e-07	0.10959	0.037156	0.115718	18.729	937.51	2765.15	2919.75	-71.271	0.0000000E+000	0.0000000E+000	0.0000000E+000	71.271	0.0000000E+000	0.0000000E+000	0.0000000E+000	-71.271	0.0000000E+000	0.0000000E+000	0.0000000E+000	-18.729	0.0000000E+000	0.0000000E+000	0.0000000E+000	18.729	2.94946	71.271	-1.88345e-06
3981.28	8.56366	4.30788	9.58614	-26.7043	1173.95	0.630892	-0.0085112	9.2797	1.87402	1	38	0.00515412	0.000537664	0	-4.17471e-05	3.28602	1.68929	73.5406	5.89981e-05	8.17003e-05	9.33386e-05	3.62507e-05	3.50367e-05	6.26239e-05	0.282678	0.286254	7.06937	5.95326e-07	4.73223e-07	6.69557e-07	6.49844e-07	6.19693e-07	5.61129e-07	0.0931905	0.0468787	0.104317	26.7043	1874.02	3725.37	4170.17	-63.2957	0.0000000E+000	0.0000000E+000	0.0000000E+000	63.2957	0.0000000E+000	0.0000000E+000	0.0000000E+000	-63.2957	0.0000000E+000	0.0000000E+000	0.0000000E+000	-26.7043	0.0000000E+000	0.0000000E+000	0.0000000E+000	26.7043	1.98791	63.2957	-2.64971e-06
2512.41	8.66709	6.36748	10.7547	-36.3037	1175.43	0.630912	-0.00887986	9.9486	3.4874	1	38	0.00516433	0.000480193	0	-4.53895e-05	3.35713	2.27705	74.5955	0.000100205	4.30796e-05	7.02601e-05	6.59148e-05	7.72278e-05	4.88504e-05	0.313761	0.146446	7.98039	7.5537e-07	7.35789e-07	7.23619e-07	3.24769e-07	3.56425e-07	3.55673e-07	0.0749338	0.0550519	0.0929827	36.3037	3487.4	4746.87	5890.22	-53.6963	0.0000000E+000	0.0000000E+000	0.0000000E+000	53.6963	0.0000000E+000	0.0000000E+000	0.0000000E+000	-53.6963	0.0000000E+000	0.0000000E+000	0.0000000E+000	-36.3037	0.0000000E+000	0.0000000E+000	0.0000000E+000	36.3037	1.36115	53.6963	-1.7261e-06
1584.49	9.26968	9.59768	13.3433	-45.996	1176.92	0.631022	-0.00743873	10.4656	5.41468	1	38	0.00512023	0.000383732	0	-4.83836e-05	2.85114	2.2117	75.3075	3.40688e-05	4.3299e-05	4.84049e-05	5.92399e-05	6.42509e-05	8.88558e-05	0.426392	0.110864	9.99783	4.20505e-07	5.33198e-07	7.3876e-07	6.68773e-07	3.85591e-07	9.53013e-07	0.0520644	0.0539067	0.0749443	45.996	5414.68	5229.63	7527.8	-44.004	0.0000000E+000	0.0000000E+000	0.0000000E+000	44.004	0.0000000E+000	0.0000000E+000	0.0000000E+000	-44.004	0.0000000E+000	0.0000000E+000	0.0000000E+000	-45.996	0.0000000E+000	0.0000000E+000	0.0000000E+000	45.996	0.965824	44.004	-1.47062e-06
999.682	10.0753	14.7147	17.8335	-55.6002	1178.41	0.630803	-0.00816489	10.8195	7.36609	1	38	0.00504369	0.000282821	0	-5.17144e-05	3.9899	3.68065	76.3062	8.13382e-05	4.64217e-05	0.000115173	4.85977e-05	8.72191e-05	6.28226e-05	0.844374	0.37459	13.2287	6.6278e-07	1.3657e-06	7.34257e-07	7.10543e-07	1.12417e-06	6.81766e-07	0.03168	0.0462677	0.0560743	55.6002	7366.09	5043.64	8927.34	-34.3998	0.0000000E+000	0.0000000E+000	0.0000000E+000	34.3998	0.0000000E+000	0.0000000E+000	0.0000000E+000	-34.3998	0.0000000E+000	0.0000000E+000	0.0000000E+000	-55.6002	0.0000000E+000	0.0000000E+000	0.0000000E+000	55.6002	0.68471	34.3998	-1.66132e-06
631.01	11.5321	22.6443	25.4117	-63.0117	1179.89	0.630924	-0.00666231	11.1384	8.84456	1	38	0.00506731	0.000199409	0	-5.46171e-05	4.4623	3.22623	76.6335	5.65735e-05	4.50901e-05	0.000137001	0.00010362	6.71068e-05	9.60061e-05	1.41765	0.485209	19.6121	8.79569e-07	4.51834e-07	2.20039e-06	1.16853e-06	7.24735e-07	2.53867e-07	0.0178583	0.0350665	0.0393519	63.0117	8844.56	4504.26	9925.45	-26.9883	0.0000000E+000	0.0000000E+000	0.0000000E+000	26.9883	0.0000000E+000	0.0000000E+000	0.0000000E+000	-26.9883	0.0000000E+000	0.0000000E+000	0.0000000E+000	-63.0117	0.0000000E+000	0.0000000E+000	0.0000000E+000	63.0117	0.509269	26.9883	-1.30648e-06
398.089	13.8735	33.7564	36.4962	-67.6579	1181.63	0.630886	-0.000756541	11.8436	10.1322	1	39	0.00514088	0.000140861	0	-5.50451e-05	6.19219	3.38766	72.3913	0.000127411	0.000145566	8.62413e-05	0.000117989	0.000131481	0.000128785	1.05543	0.437322	12.1946	1.04002e-06	4.60326e-07	3.97995e-07	5.65162e-07	5.49039e-07	3.50877e-07	0.0104158	0.0253432	0.0274001	67.6579	10132.2	4164.2	10954.5	-22.3421	0.0000000E+000	0.0000000E+000	0.0000000E+000	22.3421	0.0000000E+000	0.0000000E+000	0.0000000E+000	-22.3421	0.0000000E+000	0.0000000E+000	0.0000000E+000	-67.6579	0.0000000E+000	0.0000000E+000	0.0000000E+000	67.6579	0.410988	22.3421	-9.96707e-08
251.206	17.3544	50.7349	53.6209	-71.1162	1183.12	0.630937	-0.000316687	12.4877	11.1797	1	39	0.00501329	9.34952e-05	0	-5.52498e-05	3.75871	2.06185	74.1346	0.000103423	6.90935e-05	2.70282e-05	7.61395e-05	9.37374e-05	5.55505e-05	1.09412	0.478546	17.7726	3.96183e-07	2.3739e-07	3.05094e-07	1.79042e-07	6.98669e-07	2.6038e-07	0.00603589	0.0176457	0.0186494	71.1162	11179.7	3824.12	11815.6	-18.8838	0.0000000E+000	0.0000000E+000	0.0000000E+000	18.8838	0.0000000E+000	0.0000000E+000	0.0000000E+000	-18.8838	0.0000000E+000	0.0000000E+000	0.0000000E+000	-71.1162	0.0000000E+000	0.0000000E+000	0.0000000E+000	71.1162	0.342061	18.8838	5.4667e-09
158.529	22.6247	75.1996	78.5294	-73.2554	1184.61	0.630939	-0.000372974	13.3504	12.2423	1	39	0.00493554	6.28496e-05	0	-5.55951e-05	3.2953	2.05468	74.6798	4.51428e-05	6.3638e-05	4.4975e-05	8.40836e-05	7.36042e-05	5.53572e-05	1.69295	0.695709	27.6937	4.37627e-07	4.32587e-07	4.28196e-07	3.18344e-07	1.99492e-07	4.38517e-07	0.00366876	0.0121941	0.0127341	73.2554	12242.3	3683.25	12784.4	-16.7446	0.0000000E+000	0.0000000E+000	0.0000000E+000	16.7446	0.0000000E+000	0.0000000E+000	0.0000000E+000	-16.7446	0.0000000E+000	0.0000000E+000	0.0000000E+000	-73.2554	0.0000000E+000	0.0000000E+000	0.0000000E+000	73.2554	0.300862	16.7446	-1.2672e-07
99.9682	30.0784	112.858	116.798	-75.0768	1186.08	0.631049	-0.000441003	14.1067	13.1711	1	39	0.00497957	4.2634e-05	0	-5.56433e-05	5.23655	6.5746	76.1701	0.000121303	7.08159e-05	4.59858e-05	9.33898e-05	8.91804e-05	0.000156626	2.02856	1.57871	39.3211	2.32038e-07	5.15955e-07	2.26664e-07	1.49863e-07	4.64037e-07	2.98777e-07	0.00220488	0.00827302	0.0085618	75.0768	13171.1	3510.29	13630.9	-14.9232	0.0000000E+000	0.0000000E+000	0.0000000E+000	14.9232	0.0000000E+000	0.0000000E+000	0.0000000E+000	-14.9232	0.0000000E+000	0.0000000E+000	0.0000000E+000	-75.0768	0.0000000E+000	0.0000000E+000	0.0000000E+000	75.0768	0.266514	14.9232	-4.08003e-08