File: Python/Data/GoldElectrode/240319/Gold/240319-CVEIS_PostActivation-Fe2Fe3_5mM-HCl1M-0225RPM-Ag_AgCl_BLF8-Au_RDE_02_PEIS_C15.mpt
EC-Lab ASCII FILE
Nb header lines : 66

Potentio Electrochemical Impedance Spectroscopy

Run on channel : 15 (SN 19485)
User :
Electrode connection : standard
Potential control : Ewe
Ewe ctrl range : min = -1.00 V, max = 1.00 V
Ewe,I filtering : <None>
Safety Limits :
	Do not start on E overload
Channel : Floating
Acquisition started on : 03/19/2024 16:25:12.456
Loaded Setting File :  NONE
Saved on :
	File : 240319-CVEIS_PostActivation-Fe2Fe3_5mM-HCl1M-0225RPM-Ag_AgCl_BLF8-Au_RDE_02_PEIS_C15.mpr
	Directory : C:\Data\mathias\GoldElectrode\
	Host : 192.168.0.1
Device : VMP-300 (SN 0826)
Address : USB
EC-Lab for windows v11.52 (software)
Internet server v11.52 (firmware)
Command interpretor v11.52 (firmware)
Electrode material :
Initial state :
Electrolyte :
Comments :
Cable : special
Electrode surface area : 0.001 cm²
Characteristic mass : 0.001 g
Equivalent Weight : 0.000 g/eq.
Density : 0.000 g/cm3
Volume (V) : 0.001 cm³
Record EIS quality indicators
Cycle Definition : Charge/Discharge alternance
Mode                Single sine
E (V)               0.0000
vs.                 Eoc
tE (h:m:s)          0:01:0.0000
record              0
dI                  0.000
unit dI             mA
dt (s)              0.000
fi                  400.000
unit fi             kHz
ff                  100.000
unit ff             mHz
Nd                  10
Points              per decade
spacing             Logarithmic
Va (mV)             5.0
pw                  0.10
Na                  3
corr                0
E range min (V)     -1.000
E range max (V)     1.000
I Range             Auto
Bandwidth           8
nc cycles           2
goto Ns'            0
nr cycles           0
inc. cycle          1

freq/Hz	Re(Z)/Ohm	-Im(Z)/Ohm	|Z|/Ohm	Phase(Z)/deg	time/s	<Ewe>/V	<I>/mA	Cs/µF	Cp/µF	cycle number	I Range	|Ewe|/V	|I|/A	Ns	(Q-Qo)/mA.h	THD Ewe/%	NSD Ewe/%	NSR Ewe/%	|Ewe h2|/V	|Ewe h3|/V	|Ewe h4|/V	|Ewe h5|/V	|Ewe h6|/V	|Ewe h7|/V	THD I/%	NSD I/%	NSR I/%	|I h2|/A	|I h3|/A	|I h4|/A	|I h5|/A	|I h6|/A	|I h7|/A	Re(Y)/Ohm-1	Im(Y)/Ohm-1	|Y|/Ohm-1	Phase(Y)/deg	Re(C)/nF	Im(C)/nF	|C|/nF	Phase(C)/deg	Re(M)	Im(M)	|M|	Phase(M)/deg	Re(Permittivity)	Im(Permittivity)	|Permittivity|	Phase(Permittivity)/deg	Re(Resistivity)/Ohm.cm	Im(Resistivity)/Ohm.cm	|Resistivity|/Ohm.cm	Phase(Resistivity)/deg	Re(Conductivity)/mS/cm	Im(Conductivity)/mS/cm	|Conductivity|/mS/cm	Phase(Conductivity)/deg	Tan(Delta)	Loss Angle(Delta)/deg	dq/mA.h
399996	3.25252	1.45582	3.56347	-24.1133	203.067	0.458304	-0.0107716	0.27331	0.0456171	1	38	0.00450438	0.00126405	0	5.28823e-06	-1	-1	-1	0	0	0	0	0	0	-1	-1	-1	0	0	0	0	0	0	0.256138	0.114647	0.280626	24.1133	45.6171	101.915	111.658	-65.8867	0.0000000E+000	0.0000000E+000	0.0000000E+000	65.8867	0.0000000E+000	0.0000000E+000	0.0000000E+000	-65.8867	0.0000000E+000	0.0000000E+000	0.0000000E+000	-24.1133	0.0000000E+000	0.0000000E+000	0.0000000E+000	24.1133	2.23414	65.8867	5.28823e-06
20032.3	3.59744	0.791219	3.68342	-12.4041	218.424	0.458276	-0.0287389	10.0414	0.463323	1	37	0.00512214	0.00139059	0	-7.87042e-05	1.29119	0.926264	29.9332	2.7421e-05	2.97043e-05	1.99251e-05	2.42483e-05	2.07716e-05	3.01926e-05	0.637039	0.349605	12.8973	3.3876e-06	3.30244e-06	4.25625e-06	2.3764e-06	4.71934e-06	1.78794e-06	0.26515	0.0583169	0.271487	12.4041	463.323	2106.59	2156.94	-77.5959	0.0000000E+000	0.0000000E+000	0.0000000E+000	77.5959	0.0000000E+000	0.0000000E+000	0.0000000E+000	-77.5959	0.0000000E+000	0.0000000E+000	0.0000000E+000	-12.4041	0.0000000E+000	0.0000000E+000	0.0000000E+000	12.4041	4.5467	77.5959	-9.08877e-06
1002.75	5.81907	7.11462	9.19127	-50.7202	233.405	0.458194	-0.0027541	22.3088	13.3668	1	38	0.00510566	0.000555491	0	-0.000124908	1.48092	0.978141	28.9587	2.53438e-05	2.66457e-05	2.86862e-05	2.26876e-05	3.91283e-05	3.29099e-05	0.553976	0.192636	5.86504	1.89935e-06	9.13331e-07	6.8988e-07	9.23323e-07	1.44826e-06	7.48387e-07	0.0688815	0.0842172	0.108799	50.7202	13366.8	10932.8	17268.4	-39.2798	0.0000000E+000	0.0000000E+000	0.0000000E+000	39.2798	0.0000000E+000	0.0000000E+000	0.0000000E+000	-39.2798	0.0000000E+000	0.0000000E+000	0.0000000E+000	-50.7202	0.0000000E+000	0.0000000E+000	0.0000000E+000	50.7202	0.817903	39.2798	-5.07149e-07
50.2089	42.4688	26.7029	50.1661	-32.1603	247.944	0.458177	0.000397146	118.708	33.6339	1	39	0.00493783	9.84296e-05	0	-0.000123639	1.73856	1.101	30.05	3.09491e-05	2.99007e-05	4.08617e-05	2.66062e-05	3.972e-05	2.65288e-05	0.913017	0.504194	15.6269	4.78638e-07	3.60143e-07	2.15229e-07	1.87474e-07	4.51786e-07	3.2603e-07	0.0168752	0.0106105	0.0199338	32.1603	33633.9	53491.9	63187.2	-57.8397	0.0000000E+000	0.0000000E+000	0.0000000E+000	57.8397	0.0000000E+000	0.0000000E+000	0.0000000E+000	-57.8397	0.0000000E+000	0.0000000E+000	0.0000000E+000	-32.1603	0.0000000E+000	0.0000000E+000	0.0000000E+000	32.1603	1.59042	57.8397	1.6842e-07
2.51368	101.111	52.1966	113.789	-27.3041	267.141	0.458157	0.000567876	1213.02	255.241	1	40	0.00490031	4.30648e-05	0	-0.000121273	0.984808	0.452131	19.3018	1.78874e-05	2.0351e-05	1.4025e-05	2.10358e-05	2.20171e-05	1.33878e-05	0.386112	0.279662	2.81113	1.33733e-07	4.89394e-08	3.25723e-08	5.38237e-08	4.20772e-08	1.99354e-08	0.00780904	0.00403126	0.00878818	27.3041	255241	494434	556429	-62.6959	0.0000000E+000	0.0000000E+000	0.0000000E+000	62.6959	0.0000000E+000	0.0000000E+000	0.0000000E+000	-62.6959	0.0000000E+000	0.0000000E+000	0.0000000E+000	-27.3041	0.0000000E+000	0.0000000E+000	0.0000000E+000	27.3041	1.93712	62.6959	3.80466e-07
0.125939	311.765	95.118	325.952	-16.9667	497.943	0.458162	0.000858132	13286.1	1131.4	1	41	0.00490939	1.50617e-05	0	-7.02439e-05	0.317091	0.182511	5.94029	6.60331e-06	6.2834e-06	3.67312e-06	5.35903e-06	6.14173e-06	7.03933e-06	0.290818	0.139854	0.848718	3.57517e-08	7.72314e-09	6.00308e-09	2.2179e-08	3.06865e-09	3.50757e-09	0.0029344	0.000895271	0.00306793	16.9667	1.1314e+06	3.70835e+06	3.8771e+06	-73.0333	0.0000000E+000	0.0000000E+000	0.0000000E+000	73.0333	0.0000000E+000	0.0000000E+000	0.0000000E+000	-73.0333	0.0000000E+000	0.0000000E+000	0.0000000E+000	-16.9667	0.0000000E+000	0.0000000E+000	0.0000000E+000	16.9667	3.27767	73.0333	9.58488e-06
31751	3.45311	0.672153	3.51792	-11.0149	575.14	0.458302	-0.0204941	7.45752	0.272243	2	37	0.00517726	0.00147168	0	-0.000109316	1.69422	0.988089	30.7465	2.38075e-05	2.81115e-05	3.65527e-05	3.51328e-05	2.83296e-05	4.00523e-05	0.756222	0.347922	12.1031	6.68412e-06	2.28719e-06	4.2684e-06	2.378e-06	4.90626e-06	3.51362e-06	0.279022	0.0543119	0.284259	11.0149	272.243	1398.62	1424.87	-78.9851	0.0000000E+000	0.0000000E+000	0.0000000E+000	78.9851	0.0000000E+000	0.0000000E+000	0.0000000E+000	-78.9851	0.0000000E+000	0.0000000E+000	0.0000000E+000	-11.0149	0.0000000E+000	0.0000000E+000	0.0000000E+000	11.0149	5.1374	78.9851	-4.13003e-06
1589.49	4.89162	5.09629	7.064	-46.1739	590.79	0.458157	-0.000707827	19.6475	10.2262	2	38	0.00529809	0.000750012	0	-0.000136803	1.43349	0.979702	28.2427	3.31014e-05	3.17505e-05	1.4328e-05	3.05169e-05	3.3086e-05	2.86076e-05	0.39889	0.163047	4.43058	2.18679e-06	9.99877e-07	8.05916e-07	5.80441e-07	8.64521e-07	8.37571e-07	0.0980283	0.10213	0.141563	46.1739	10226.2	9815.52	14174.6	-43.8261	0.0000000E+000	0.0000000E+000	0.0000000E+000	43.8261	0.0000000E+000	0.0000000E+000	0.0000000E+000	-43.8261	0.0000000E+000	0.0000000E+000	0.0000000E+000	-46.1739	0.0000000E+000	0.0000000E+000	0.0000000E+000	46.1739	0.959841	43.8261	-3.34152e-07
79.6177	37.9083	30.0581	48.379	-38.4115	605.397	0.458164	0.00101686	66.5041	25.6719	2	39	0.00493846	0.000102079	0	-0.00013234	1.81942	1.11667	30.144	3.28499e-05	2.76418e-05	3.57401e-05	3.33936e-05	2.89142e-05	3.9879e-05	1.03178	0.527999	15.4673	6.20939e-07	3.18448e-07	3.45867e-07	4.63379e-07	3.20045e-07	3.15496e-07	0.0161965	0.0128424	0.0206701	38.4115	25671.9	32376.6	41319.4	-51.5885	0.0000000E+000	0.0000000E+000	0.0000000E+000	51.5885	0.0000000E+000	0.0000000E+000	0.0000000E+000	-51.5885	0.0000000E+000	0.0000000E+000	0.0000000E+000	-38.4115	0.0000000E+000	0.0000000E+000	0.0000000E+000	38.4115	1.26117	51.5885	3.40046e-07
3.98597	100.404	46.214	110.53	-24.7156	621.631	0.458172	0.00101526	863.998	151.044	2	40	0.00491018	4.44242e-05	0	-0.000128429	1.72238	0.76173	26.5887	2.20586e-05	2.10858e-05	3.23697e-05	4.11654e-05	4.75658e-05	2.02894e-05	0.489596	0.310734	3.66867	1.73492e-07	6.76154e-08	5.83039e-08	5.29571e-08	5.92801e-08	3.49134e-08	0.00821857	0.00378283	0.00904736	24.7156	151044	328157	361250	-65.2844	0.0000000E+000	0.0000000E+000	0.0000000E+000	65.2844	0.0000000E+000	0.0000000E+000	0.0000000E+000	-65.2844	0.0000000E+000	0.0000000E+000	0.0000000E+000	-24.7156	0.0000000E+000	0.0000000E+000	0.0000000E+000	24.7156	2.1726	65.2844	-3.24778e-07
0.199573	278.385	113.562	300.657	-22.192	769.373	0.458183	0.00110883	7022.4	1001.86	2	41	0.00491375	1.63434e-05	0	-8.60489e-05	0.483674	0.182889	7.52574	8.93106e-06	7.57877e-06	9.53504e-06	1.02299e-05	9.28436e-06	7.26582e-06	0.377398	0.121995	0.883758	5.71522e-08	1.24707e-08	3.82514e-09	1.68206e-08	1.14621e-09	7.75738e-09	0.00307967	0.00125629	0.00332605	22.192	1.00186e+06	2.45596e+06	2.65244e+06	-67.808	0.0000000E+000	0.0000000E+000	0.0000000E+000	67.808	0.0000000E+000	0.0000000E+000	0.0000000E+000	-67.808	0.0000000E+000	0.0000000E+000	0.0000000E+000	-22.192	0.0000000E+000	0.0000000E+000	0.0000000E+000	22.192	2.4514	67.808	5.997e-06
50326.6	3.31383	0.568891	3.3623	-9.74113	932.085	0.458283	0.00254668	5.55896	0.15914	3	37	0.00521102	0.00154984	0	-3.55214e-05	1.69916	0.945555	31.3347	3.2818e-05	3.39446e-05	3.29844e-05	3.23356e-05	3.57137e-05	2.14867e-05	0.422719	0.319199	11.5012	2.47303e-06	1.44355e-06	1.85695e-06	2.26457e-06	3.4853e-06	1.99446e-06	0.293127	0.0503217	0.297415	9.74113	159.14	926.998	940.558	-80.2589	0.0000000E+000	0.0000000E+000	0.0000000E+000	80.2589	0.0000000E+000	0.0000000E+000	0.0000000E+000	-80.2589	0.0000000E+000	0.0000000E+000	0.0000000E+000	-9.74113	0.0000000E+000	0.0000000E+000	0.0000000E+000	9.74113	5.82506	80.2589	-1.64511e-06
2519.19	4.39741	3.57462	5.66702	-39.1074	947.227	0.458145	0.000251079	17.6738	7.03201	3	38	0.00545345	0.000962314	0	-3.4262e-05	1.40745	0.914156	28.0583	3.24353e-05	3.53917e-05	2.11183e-05	3.21788e-05	3.02504e-05	2.62177e-05	0.274296	0.257526	3.41185	1.94152e-06	8.47396e-07	6.12762e-07	9.96817e-07	4.06654e-07	6.26143e-07	0.136926	0.111306	0.17646	39.1074	7032.01	8650.61	11148.2	-50.8926	0.0000000E+000	0.0000000E+000	0.0000000E+000	50.8926	0.0000000E+000	0.0000000E+000	0.0000000E+000	-50.8926	0.0000000E+000	0.0000000E+000	0.0000000E+000	-39.1074	0.0000000E+000	0.0000000E+000	0.0000000E+000	39.1074	1.23018	50.8926	8.97708e-07
126.171	28.959	30.5424	42.0887	-46.5243	961.857	0.458161	0.0014843	41.3007	21.7486	3	39	0.0049484	0.000117571	0	-2.82202e-05	1.45477	1.11957	29.4742	2.02154e-05	3.11273e-05	2.20959e-05	3.48175e-05	3.15741e-05	2.00055e-05	0.658537	0.495426	13.129	4.67006e-07	2.66249e-07	2.62887e-07	3.42942e-07	1.65691e-07	1.68719e-07	0.0163475	0.0172413	0.0237593	46.5243	21748.6	20621.1	29970.5	-43.4757	0.0000000E+000	0.0000000E+000	0.0000000E+000	43.4757	0.0000000E+000	0.0000000E+000	0.0000000E+000	-43.4757	0.0000000E+000	0.0000000E+000	0.0000000E+000	-46.5243	0.0000000E+000	0.0000000E+000	0.0000000E+000	46.5243	0.948159	43.4757	3.02851e-07
6.31569	98.9053	43.6297	108.101	-23.8035	976.662	0.458155	0.00132836	577.587	94.0855	3	40	0.00493389	4.56415e-05	0	-2.31928e-05	1.88148	1.05906	34.7405	2.72947e-05	3.41208e-05	3.30168e-05	3.77032e-05	2.8415e-05	4.73779e-05	0.443668	0.127944	4.68577	1.59088e-07	4.92468e-08	3.13292e-08	7.41333e-08	4.17485e-08	3.72582e-08	0.00846371	0.00373356	0.00925061	23.8035	94085.5	213285	233115	-66.1965	0.0000000E+000	0.0000000E+000	0.0000000E+000	66.1965	0.0000000E+000	0.0000000E+000	0.0000000E+000	-66.1965	0.0000000E+000	0.0000000E+000	0.0000000E+000	-23.8035	0.0000000E+000	0.0000000E+000	0.0000000E+000	23.8035	2.26693	66.1965	6.25665e-07
0.316193	239.105	114.482	265.099	-25.5848	1072.41	0.458198	0.00138281	4396.74	819.954	3	41	0.00490775	1.85129e-05	0	1.45742e-05	0.543809	0.254243	9.60126	7.88556e-06	7.1689e-06	9.21599e-06	1.09064e-05	1.54309e-05	7.83584e-06	0.359827	0.14657	0.832173	5.89027e-08	1.4e-08	9.27702e-09	1.88479e-08	7.20238e-09	7.65528e-09	0.00340231	0.001629	0.00377218	25.5848	819954	1.71254e+06	1.89872e+06	-64.4152	0.0000000E+000	0.0000000E+000	0.0000000E+000	64.4152	0.0000000E+000	0.0000000E+000	0.0000000E+000	-64.4152	0.0000000E+000	0.0000000E+000	0.0000000E+000	-25.5848	0.0000000E+000	0.0000000E+000	0.0000000E+000	25.5848	2.08858	64.4152	1.05729e-05
0.0999518	352.151	82.0804	361.59	-13.1204	1276.99	0.458199	0.00154368	19399.5	999.623	3	41	0.00491166	1.35835e-05	0	9.43988e-05	0.272525	0.258524	5.94133	4.85859e-06	4.87769e-06	5.45148e-06	7.99416e-06	2.49583e-06	3.88114e-06	0.276412	0.0885947	0.819138	3.23393e-08	6.39777e-09	3.33274e-09	1.57986e-08	3.63292e-09	5.31881e-09	0.00269337	0.000627779	0.00276556	13.1204	999623	4.2887e+06	4.40366e+06	-76.8796	0.0000000E+000	0.0000000E+000	0.0000000E+000	76.8796	0.0000000E+000	0.0000000E+000	0.0000000E+000	-76.8796	0.0000000E+000	0.0000000E+000	0.0000000E+000	-13.1204	0.0000000E+000	0.0000000E+000	0.0000000E+000	13.1204	4.29031	76.8796	2.86484e-05