File: Python/Data/GoldElectrode/240319/Gold/240319-CVEIS_Activation-0p5H2SO4-Ag_AgCl_BLF8-Au_RDE-80cycles_10_PEIS_C15.mpt
EC-Lab ASCII FILE
Nb header lines : 66

Potentio Electrochemical Impedance Spectroscopy

Run on channel : 15 (SN 19485)
User :
Electrode connection : standard
Potential control : Ewe
Ewe ctrl range : min = -2.50 V, max = 2.50 V
Ewe,I filtering : 50 kHz
Safety Limits :
	Do not start on E overload
Channel : Floating
Acquisition started on : 03/19/2024 13:27:19.036
Loaded Setting File :  C:\Data\mathias\GoldElectrode\240313-CVEIS_Activation-0p5H2SO4-Ag_AgCl_BLF8-Au_RDE-80cycles.mps
Saved on :
	File : 240319-CVEIS_Activation-0p5H2SO4-Ag_AgCl_BLF8-Au_RDE-80cycles_10_PEIS_C15.mpr
	Directory : C:\Data\mathias\GoldElectrode\
	Host : 192.168.0.1
Device : VMP-300 (SN 0826)
Address : USB
EC-Lab for windows v11.52 (software)
Internet server v11.52 (firmware)
Command interpretor v11.52 (firmware)
Electrode material :
Initial state :
Electrolyte :
Comments :
Cable : special
Electrode surface area : 0.001 cm²
Characteristic mass : 0.001 g
Equivalent Weight : 0.000 g/eq.
Density : 0.000 g/cm3
Volume (V) : 0.001 cm³
Record EIS quality indicators
Cycle Definition : Charge/Discharge alternance
Mode                Single sine
E (V)               0.0000
vs.                 Eoc
tE (h:m:s)          0:00:0.0000
record              0
dI                  0.000
unit dI             mA
dt (s)              0.000
fi                  100.000
unit fi             kHz
ff                  100.000
unit ff             Hz
Nd                  10
Points              per decade
spacing             Logarithmic
Va (mV)             5.0
pw                  0.10
Na                  2
corr                0
E range min (V)     -2.500
E range max (V)     2.500
I Range             Auto
Bandwidth           8
nc cycles           0
goto Ns'            0
nr cycles           0
inc. cycle          0

freq/Hz	Re(Z)/Ohm	-Im(Z)/Ohm	|Z|/Ohm	Phase(Z)/deg	time/s	<Ewe>/V	<I>/mA	Cs/µF	Cp/µF	cycle number	I Range	|Ewe|/V	|I|/A	Ns	(Q-Qo)/mA.h	THD Ewe/%	NSD Ewe/%	NSR Ewe/%	|Ewe h2|/V	|Ewe h3|/V	|Ewe h4|/V	|Ewe h5|/V	|Ewe h6|/V	|Ewe h7|/V	THD I/%	NSD I/%	NSR I/%	|I h2|/A	|I h3|/A	|I h4|/A	|I h5|/A	|I h6|/A	|I h7|/A	Re(Y)/Ohm-1	Im(Y)/Ohm-1	|Y|/Ohm-1	Phase(Y)/deg	Re(C)/nF	Im(C)/nF	|C|/nF	Phase(C)/deg	Re(M)	Im(M)	|M|	Phase(M)/deg	Re(Permittivity)	Im(Permittivity)	|Permittivity|	Phase(Permittivity)/deg	Re(Resistivity)/Ohm.cm	Im(Resistivity)/Ohm.cm	|Resistivity|/Ohm.cm	Phase(Resistivity)/deg	Re(Conductivity)/mS/cm	Im(Conductivity)/mS/cm	|Conductivity|/mS/cm	Phase(Conductivity)/deg	Tan(Delta)	Loss Angle(Delta)/deg	dq/mA.h
100004	7.56299	0.655574	7.59135	-4.95412	1549.07	0.631028	-0.0178824	2.42763	0.0181045	1	38	0.00487074	0.000641616	0	-4.78909e-06	3.67998	2.06126	80.2099	1.36489e-05	4.8922e-05	0.000103101	8.29717e-05	9.60032e-05	2.95573e-05	0.277932	0.181332	6.02753	9.0153e-07	8.43245e-07	5.57305e-07	5.06227e-07	5.90787e-07	6.65405e-07	0.131237	0.0113758	0.131729	4.95412	18.1045	208.862	209.645	-85.0459	0.0000000E+000	0.0000000E+000	0.0000000E+000	85.0459	0.0000000E+000	0.0000000E+000	0.0000000E+000	-85.0459	0.0000000E+000	0.0000000E+000	0.0000000E+000	-4.95412	0.0000000E+000	0.0000000E+000	0.0000000E+000	4.95412	11.5365	85.0459	-4.78909e-06
63093.8	7.49028	0.671815	7.52035	-5.12523	1550.7	0.631042	-0.00995047	3.75477	0.0299645	1	38	0.00519713	0.000691075	0	-8.71121e-06	3.00361	2.23295	74.9028	4.06859e-05	9.1794e-05	5.80096e-05	7.16174e-05	2.80724e-05	4.2145e-05	0.205885	0.135274	5.51997	6.90823e-07	6.40563e-07	3.78164e-07	4.43897e-07	7.41775e-07	2.83795e-07	0.132441	0.0118788	0.132973	5.12523	29.9645	334.084	335.425	-84.8748	0.0000000E+000	0.0000000E+000	0.0000000E+000	84.8748	0.0000000E+000	0.0000000E+000	0.0000000E+000	-84.8748	0.0000000E+000	0.0000000E+000	0.0000000E+000	-5.12523	0.0000000E+000	0.0000000E+000	0.0000000E+000	5.12523	11.1493	84.8748	-1.29711e-06
39814.1	7.60478	0.677149	7.63487	-5.08834	1552.32	0.631021	-0.0105128	5.90336	0.046437	1	38	0.00516561	0.000676581	0	-1.32961e-05	3.44808	2.2803	74.8298	5.64881e-05	6.96162e-05	5.66124e-05	5.08544e-05	7.72675e-05	9.3923e-05	0.35544	0.235578	5.70891	7.7611e-07	1.07757e-06	2.61055e-07	1.21594e-06	8.58084e-07	1.13707e-06	0.130462	0.0116167	0.130978	5.08834	46.437	521.515	523.579	-84.9117	0.0000000E+000	0.0000000E+000	0.0000000E+000	84.9117	0.0000000E+000	0.0000000E+000	0.0000000E+000	-84.9117	0.0000000E+000	0.0000000E+000	0.0000000E+000	-5.08834	0.0000000E+000	0.0000000E+000	0.0000000E+000	5.08834	11.2306	84.9117	-2.1839e-06
25116.9	7.69058	1.07306	7.76508	-7.94314	1553.95	0.63107	-0.00838645	5.90514	0.112768	1	38	0.00515352	0.000663679	0	-1.76111e-05	4.78813	2.21154	74.5892	0.000139186	9.6431e-05	5.14201e-05	0.000118983	6.65884e-05	8.29346e-05	0.353511	0.181023	5.75464	1.26133e-06	1.2327e-06	4.74564e-07	1.22574e-06	4.43427e-07	5.56767e-07	0.127546	0.0177964	0.128782	7.94314	112.768	808.204	816.033	-82.0569	0.0000000E+000	0.0000000E+000	0.0000000E+000	82.0569	0.0000000E+000	0.0000000E+000	0.0000000E+000	-82.0569	0.0000000E+000	0.0000000E+000	0.0000000E+000	-7.94314	0.0000000E+000	0.0000000E+000	0.0000000E+000	7.94314	7.16697	82.0569	-1.64175e-06
15847.7	7.84539	1.34103	7.95917	-9.69998	1555.58	0.630983	-0.00880166	7.48884	0.212597	1	38	0.00508767	0.000639221	0	-2.23706e-05	4.16856	2.06414	75.3586	9.31258e-05	4.34235e-05	6.82236e-05	6.72893e-05	0.000109165	9.48724e-05	0.353117	0.102039	6.07707	1.07495e-06	9.87974e-07	6.0739e-07	1.05694e-06	5.72759e-07	8.59631e-07	0.123845	0.0211692	0.125641	9.69998	212.597	1243.75	1261.79	-80.3	0.0000000E+000	0.0000000E+000	0.0000000E+000	80.3	0.0000000E+000	0.0000000E+000	0.0000000E+000	-80.3	0.0000000E+000	0.0000000E+000	0.0000000E+000	-9.69998	0.0000000E+000	0.0000000E+000	0.0000000E+000	9.69998	5.85025	80.3	-1.22989e-06
10002.2	8.00387	1.87245	8.21997	-13.1672	1557.21	0.631025	-0.00797868	8.49793	0.440954	1	38	0.00515647	0.00062731	0	-2.73117e-05	2.72571	1.85341	76.5015	3.99546e-05	5.85752e-05	4.48192e-05	3.03179e-05	8.67313e-05	5.33179e-05	0.277782	0.239132	6.23036	4.68606e-07	3.48873e-07	6.36635e-07	8.03385e-07	6.78494e-07	8.33521e-07	0.118457	0.0277121	0.121655	13.1672	440.954	1884.88	1935.77	-76.8328	0.0000000E+000	0.0000000E+000	0.0000000E+000	76.8328	0.0000000E+000	0.0000000E+000	0.0000000E+000	-76.8328	0.0000000E+000	0.0000000E+000	0.0000000E+000	-13.1672	0.0000000E+000	0.0000000E+000	0.0000000E+000	13.1672	4.27454	76.8328	-2.28059e-06
6307.74	8.06296	2.69356	8.50097	-18.4727	1558.96	0.63087	-0.00801965	9.36743	0.94045	1	38	0.00487566	0.000573541	0	-3.05501e-05	4.41227	8.16525	80.3163	3.44326e-05	0.000107217	7.71886e-05	0.000118858	6.57429e-05	8.15529e-05	0.443338	0.476959	6.67417	8.65995e-07	8.07847e-07	6.94642e-07	1.61647e-06	8.83785e-07	7.63032e-07	0.111572	0.0372725	0.117634	18.4727	940.45	2815.16	2968.1	-71.5273	0.0000000E+000	0.0000000E+000	0.0000000E+000	71.5273	0.0000000E+000	0.0000000E+000	0.0000000E+000	-71.5273	0.0000000E+000	0.0000000E+000	0.0000000E+000	-18.4727	0.0000000E+000	0.0000000E+000	0.0000000E+000	18.4727	2.99342	71.5273	-1.73522e-06
3981.28	8.36959	4.16961	9.3507	-26.4819	1560.68	0.630748	-0.00935093	9.58742	1.90636	1	38	0.00504883	0.000539942	0	-3.34299e-05	2.30407	1.03001	76.5281	5.80175e-05	5.97412e-05	3.1546e-05	2.12096e-05	1.90115e-05	6.49428e-05	0.4305	0.130279	7.11891	1.21574e-06	9.28371e-07	1.08884e-06	9.57823e-07	6.75538e-07	5.75447e-07	0.0957228	0.0476878	0.106944	26.4819	1906.36	3826.6	4275.17	-63.5181	0.0000000E+000	0.0000000E+000	0.0000000E+000	63.5181	0.0000000E+000	0.0000000E+000	0.0000000E+000	-63.5181	0.0000000E+000	0.0000000E+000	0.0000000E+000	-26.4819	0.0000000E+000	0.0000000E+000	0.0000000E+000	26.4819	2.00728	63.5181	-1.33417e-06
2512.41	8.56196	6.06629	10.4932	-35.3182	1562.16	0.630908	-0.00739962	10.4425	3.4901	1	38	0.0050867	0.000484762	0	-3.64416e-05	3.15098	2.46414	75.7291	6.12773e-05	6.41106e-05	7.11629e-05	3.74993e-05	7.49751e-05	5.67944e-05	0.477465	0.150668	7.95577	1.31631e-06	1.18882e-06	7.3915e-07	6.56708e-07	7.42621e-07	7.01777e-07	0.0777603	0.0550945	0.0952999	35.3182	3490.1	4925.92	6037.01	-54.6818	0.0000000E+000	0.0000000E+000	0.0000000E+000	54.6818	0.0000000E+000	0.0000000E+000	0.0000000E+000	-54.6818	0.0000000E+000	0.0000000E+000	0.0000000E+000	-35.3182	0.0000000E+000	0.0000000E+000	0.0000000E+000	35.3182	1.4114	54.6818	-1.82661e-06
1584.49	9.15382	9.43479	13.1456	-45.866	1563.65	0.630858	-0.00657107	10.6463	5.48402	1	38	0.00511276	0.000388932	0	-3.91518e-05	3.96476	1.9658	77.135	7.54981e-05	9.57525e-05	0.00010799	4.47817e-05	7.21705e-05	5.69787e-05	0.464419	0.315536	10.1376	4.29861e-07	6.17165e-07	7.11967e-07	7.41994e-07	6.06842e-07	9.09734e-07	0.0529712	0.0545971	0.0760709	45.866	5484.02	5320.71	7640.97	-44.134	0.0000000E+000	0.0000000E+000	0.0000000E+000	44.134	0.0000000E+000	0.0000000E+000	0.0000000E+000	-44.134	0.0000000E+000	0.0000000E+000	0.0000000E+000	-45.866	0.0000000E+000	0.0000000E+000	0.0000000E+000	45.866	0.97022	44.134	-1.59833e-06
999.682	9.90138	14.1975	17.3092	-55.108	1565.14	0.630924	-0.00662507	11.2136	7.5443	1	38	0.00498121	0.000287779	0	-4.20748e-05	3.44304	1.26869	77.1687	3.14267e-05	4.40999e-05	4.01974e-05	0.000109777	9.68153e-05	4.47065e-05	0.967567	0.320183	13.4991	1.3896e-06	1.70516e-06	6.22858e-07	7.13703e-07	3.73348e-07	1.23134e-06	0.0330479	0.0473872	0.0577729	55.108	7544.3	5261.41	9197.77	-34.892	0.0000000E+000	0.0000000E+000	0.0000000E+000	34.892	0.0000000E+000	0.0000000E+000	0.0000000E+000	-34.892	0.0000000E+000	0.0000000E+000	0.0000000E+000	-55.108	0.0000000E+000	0.0000000E+000	0.0000000E+000	55.108	0.697402	34.892	-1.18242e-06
631.01	11.6305	21.9334	24.8262	-62.0647	1566.62	0.630913	-0.00658411	11.4995	8.97571	1	38	0.00501582	0.000202037	0	-4.46256e-05	6.01223	2.56307	78.746	9.74418e-05	7.35852e-05	0.000213922	5.72142e-05	6.1948e-05	0.000149007	1.03475	0.625029	18.9909	8.63014e-07	1.23804e-06	1.08609e-06	6.91018e-07	2.55173e-07	3.41281e-07	0.0188701	0.0355864	0.04028	62.0647	8975.71	4759.48	10159.5	-27.9353	0.0000000E+000	0.0000000E+000	0.0000000E+000	27.9353	0.0000000E+000	0.0000000E+000	0.0000000E+000	-27.9353	0.0000000E+000	0.0000000E+000	0.0000000E+000	-62.0647	0.0000000E+000	0.0000000E+000	0.0000000E+000	62.0647	0.530262	27.9353	-9.75705e-07
398.089	13.4909	33.1343	35.7755	-67.8459	1568.37	0.630851	-0.000484427	12.066	10.3501	1	39	0.00510298	0.000142639	0	-4.58496e-05	4.52692	3.74008	73.6915	6.41013e-05	0.000150146	3.90915e-05	6.52909e-05	6.82534e-05	0.000116749	0.898451	0.474918	12.1722	4.87073e-07	4.05801e-07	4.89157e-07	6.94204e-07	4.89598e-07	3.76414e-07	0.0105407	0.0258885	0.0279521	67.8459	10350.1	4214.14	11175.2	-22.1541	0.0000000E+000	0.0000000E+000	0.0000000E+000	22.1541	0.0000000E+000	0.0000000E+000	0.0000000E+000	-22.1541	0.0000000E+000	0.0000000E+000	0.0000000E+000	-67.8459	0.0000000E+000	0.0000000E+000	0.0000000E+000	67.8459	0.407157	22.1541	-4.22876e-07
251.206	17.3311	50.0848	52.9987	-70.9126	1569.85	0.630944	-0.000206723	12.6498	11.2971	1	39	0.00500612	9.44574e-05	0	-4.58711e-05	3.35132	1.37663	76.547	0.000106558	5.70235e-05	5.6494e-05	2.67511e-05	4.5934e-05	8.12323e-05	1.00486	0.531318	19.0065	6.0079e-07	2.25379e-07	2.90824e-07	5.88683e-07	1.07703e-07	1.98236e-07	0.00617016	0.017831	0.0188684	70.9126	11297.1	3909.19	11954.3	-19.0874	0.0000000E+000	0.0000000E+000	0.0000000E+000	19.0874	0.0000000E+000	0.0000000E+000	0.0000000E+000	-19.0874	0.0000000E+000	0.0000000E+000	0.0000000E+000	-70.9126	0.0000000E+000	0.0000000E+000	0.0000000E+000	70.9126	0.346035	19.0874	5.63563e-08
158.529	23.7491	74.1913	77.8998	-72.2498	1571.34	0.630873	-0.000337749	13.5319	12.2742	1	39	0.00492908	6.32746e-05	0	-4.6131e-05	3.64231	0.903896	75.719	5.69947e-05	6.81628e-05	1.35722e-05	9.37195e-05	3.94291e-05	0.000102613	1.81119	0.493812	28.6293	5.96514e-07	4.15327e-07	4.81446e-07	2.18354e-07	3.83963e-07	4.31019e-07	0.00391359	0.0122259	0.012837	72.2498	12274.2	3929.04	12887.7	-17.7502	0.0000000E+000	0.0000000E+000	0.0000000E+000	17.7502	0.0000000E+000	0.0000000E+000	0.0000000E+000	-17.7502	0.0000000E+000	0.0000000E+000	0.0000000E+000	-72.2498	0.0000000E+000	0.0000000E+000	0.0000000E+000	72.2498	0.320106	17.7502	-1.75409e-07
99.9682	31.3496	109.36	113.765	-74.0043	1572.82	0.63095	-0.000577246	14.5579	13.4525	1	39	0.00487124	4.28185e-05	0	-4.62303e-05	4.50922	4.62034	79.7162	8.79917e-05	7.96976e-05	0.000126166	8.70404e-05	6.3838e-05	5.07648e-05	2.70535	1.45971	42.9321	5.66294e-07	4.45055e-07	4.1837e-07	2.975e-07	2.33889e-07	5.59309e-07	0.00242224	0.00844975	0.00879008	74.0043	13452.5	3856.34	13994.3	-15.9957	0.0000000E+000	0.0000000E+000	0.0000000E+000	15.9957	0.0000000E+000	0.0000000E+000	0.0000000E+000	-15.9957	0.0000000E+000	0.0000000E+000	0.0000000E+000	-74.0043	0.0000000E+000	0.0000000E+000	0.0000000E+000	74.0043	0.286664	15.9957	-7.02835e-08