File: Python/Data/GoldElectrode/240319/Gold/240319-CVEIS_PostActivation-Fe2Fe3_5mM-HCl1M-0RPM-Ag_AgCl_BLF8-Au_RDE_01_CV_C15.mpt
EC-Lab ASCII FILE
Nb header lines : 60

Cyclic Voltammetry

Run on channel : 15 (SN 19485)
User :
Electrode connection : standard
Potential control : Ewe
Ewe ctrl range : min = -1.00 V, max = 1.00 V
Ewe,I filtering : <None>
Safety Limits :
	Do not start on E overload
Channel : Floating
Acquisition started on : 03/19/2024 15:57:04.315
Loaded Setting File :  NONE
Saved on :
	File : 240319-CVEIS_PostActivation-Fe2Fe3_5mM-HCl1M-0RPM-Ag_AgCl_BLF8-Au_RDE_01_CV_C15.mpr
	Directory : C:\Data\mathias\GoldElectrode\
	Host : 192.168.0.1
Device : VMP-300 (SN 0826)
Address : USB
EC-Lab for windows v11.52 (software)
Internet server v11.52 (firmware)
Command interpretor v11.52 (firmware)
Electrode material :
Initial state :
Electrolyte :
Comments :
Cable : special
Electrode surface area : 0.001 cm²
Characteristic mass : 0.001 g
Equivalent Weight : 0.000 g/eq.
Density : 0.000 g/cm3
Volume (V) : 0.001 cm³
Record EIS quality indicators
Cycle Definition : Charge/Discharge alternance
Ei (V)              0.000
vs.                 Eoc
dE/dt               20.000
dE/dt unit          mV/s
E1 (V)              0.700
vs.                 Ref
Step percent        50
N                   10
E range min (V)     -1.000
E range max (V)     1.000
I Range             Auto
I Range min         Unset
I Range max         Unset
I Range init        Unset
Bandwidth           8
E2 (V)              0.000
vs.                 Ref
nc cycles           1
Reverse Scan        1
Ef (V)              0.000
vs.                 Eoc

mode	ox/red	error	control changes	counter inc.	time/s	control/V	Ewe/V	<I>/mA	cycle number	(Q-Qo)/C	I Range	step time/s	P/W
2	1	1	0	0	0.000000000000000E+000	0.462033	0.461565	0.0186797	1	0.0000000E+000	41	0.000000000000000E+000	8.6219e-06
2	1	0	1	0	1.1632	0.485295	0.485337	0.0805603	1	6.65863e-05	41	1.1494	3.90988e-05
2	1	0	1	0	2.3377	0.508786	0.508928	0.0921857	1	0.000170968	41	2.3239	4.69158e-05
2	1	0	1	0	3.5122	0.532275	0.531804	0.0850345	1	0.000275968	41	3.4984	4.52217e-05
2	1	0	1	0	4.6866	0.555764	0.555446	0.0738696	1	0.000369291	41	4.6728	4.10306e-05
2	1	0	1	0	5.8611	0.579253	0.57917	0.0643124	1	0.000450244	41	5.8473	3.72478e-05
2	1	0	1	0	7.0355	0.602743	0.602837	0.0571896	1	0.000521413	41	7.0217	3.4476e-05
2	1	0	1	0	8.21	0.626232	0.62578	0.0522374	1	0.000585526	41	8.1962	3.26891e-05
2	1	0	1	0	9.3844	0.649721	0.649626	0.0490238	1	0.000644844	41	9.3706	3.18471e-05
2	1	0	1	0	10.5589	0.67321	0.672457	0.047781	1	0.000701491	41	10.5451	3.21307e-05
2	1	0	1	0	11.7334	0.6967	0.696216	0.0493147	1	0.000758168	41	11.7196	3.43337e-05
2	1	0	1	0	12.8609	0.680756	0.680378	0.0387446	1	0.000806948	41	12.8471	2.6361e-05
2	1	0	1	0	14.0353	0.657267	0.656776	0.0356603	1	0.000850283	41	14.0215	2.34208e-05
2	1	0	1	0	15.2098	0.633778	0.633681	0.0341576	1	0.000891184	41	15.196	2.1645e-05
2	1	0	1	0	16.3842	0.610289	0.609869	0.0327518	1	0.000930459	41	16.3704	1.99743e-05
2	1	0	1	0	17.5587	0.5868	0.586727	0.0305324	1	0.000967728	41	17.5449	1.79142e-05
2	1	0	1	0	18.7332	0.563311	0.562817	0.0264954	1	0.00100147	41	18.7194	1.49121e-05
2	1	0	1	0	19.9076	0.539822	0.539543	0.0178813	1	0.0010281	41	19.8938	9.64773e-06
2	0	0	1	0	21.112	0.515735	0.515455	-0.000489283	1	0.00103983	42	0.000000000000000E+000	-2.52203e-07
2	0	0	1	0	22.3165	0.491644	0.491182	-0.0344153	1	0.0010205	41	1.2045	-1.69042e-05
2	0	0	1	0	23.491	0.468153	0.467946	-0.0807007	1	0.000953419	41	2.379	-3.77636e-05
2	0	0	1	0	24.6954	0.444066	0.443723	-0.120679	1	0.000829641	40	3.5834	-5.3548e-05
2	0	0	1	0	25.8698	0.420577	0.420368	-0.133616	1	0.000676717	40	4.7578	-5.61679e-05
2	0	0	1	0	27.0443	0.397088	0.396826	-0.123884	1	0.000523427	40	5.9323	-4.91604e-05
2	0	0	1	0	28.2188	0.373598	0.373186	-0.106287	1	0.000387324	40	7.1068	-3.9665e-05
2	0	0	1	0	29.3932	0.35011	0.3499	-0.0905794	1	0.000271117	40	8.2812	-3.16938e-05
2	0	0	1	0	30.5677	0.326621	0.326317	-0.0782909	1	0.000171376	40	9.4557	-2.55476e-05
2	0	0	1	0	31.7421	0.303132	0.302816	-0.0691564	1	8.41328e-05	40	10.6301	-2.09417e-05
2	0	0	1	0	32.9166	0.279643	0.279222	-0.0622648	1	6.20014e-06	40	11.8046	-1.73857e-05
2	0	0	1	0	34.091	0.256153	0.256232	-0.0569645	1	-6.46674e-05	40	12.979	-1.45961e-05
2	0	0	1	0	35.2655	0.232664	0.232417	-0.0525953	1	-0.000130033	40	14.1535	-1.2224e-05
2	0	0	1	0	36.4399	0.209175	0.208955	-0.0490358	1	-0.000190981	40	15.3279	-1.02463e-05
2	0	0	1	0	37.6144	0.185686	0.185442	-0.0461605	1	-0.000248351	40	16.5024	-8.56009e-06
2	0	0	1	0	38.7888	0.162198	0.161913	-0.0437668	1	-0.000302796	40	17.6768	-7.08643e-06
2	0	0	1	0	39.9933	0.138108	0.138175	-0.0432421	1	-0.000356076	41	18.8813	-5.975e-06
2	0	0	1	0	41.1677	0.114619	0.114337	-0.0416177	1	-0.000405918	41	20.0557	-4.75846e-06
2	0	0	1	0	42.3422	0.0911301	0.0908397	-0.0401981	1	-0.000453985	41	21.2302	-3.65158e-06
2	0	0	1	0	43.5166	0.0676428	0.06725	-0.0390257	1	-0.000500517	41	22.4046	-2.62447e-06
2	0	0	1	0	44.6911	0.0441519	0.0436879	-0.0379654	1	-0.000545722	41	23.5791	-1.65863e-06
2	0	0	1	0	45.8656	0.0206628	0.0208247	-0.0370461	1	-0.000589774	41	24.7536	-7.71474e-07
2	0	0	1	1	47.0132	0.00227134	0.00178788	-0.0354022	1	-0.000631778	41	25.9012	-6.32948e-08
2	0	0	1	1	48.1876	0.0257604	0.0255594	-0.0345596	1	-0.000672808	41	27.0756	-8.83323e-07
2	0	0	1	1	49.3621	0.0492495	0.0489684	-0.0339033	1	-0.000712971	41	28.2501	-1.66019e-06
2	0	0	1	1	50.5365	0.0727386	0.0729466	-0.0333286	1	-0.000752409	41	29.4245	-2.43121e-06
2	0	0	1	1	51.711	0.0962277	0.0961354	-0.032849	1	-0.00079125	41	30.599	-3.15795e-06
2	0	0	1	1	52.8854	0.119717	0.119681	-0.0323773	1	-0.000829557	41	31.7734	-3.87494e-06
2	0	0	1	1	54.0599	0.143206	0.142539	-0.0319634	1	-0.000867353	41	32.9479	-4.55603e-06
2	0	0	1	1	55.2344	0.166697	0.166597	-0.0316268	1	-0.000904687	41	34.1224	-5.26894e-06
2	0	0	1	1	56.4088	0.190184	0.189889	-0.0312839	1	-0.000941613	41	35.2968	-5.94046e-06
2	0	0	1	1	57.5833	0.213673	0.213169	-0.0310162	1	-0.000978177	41	36.4713	-6.61168e-06
2	0	0	1	1	58.7577	0.237162	0.237308	-0.0306795	1	-0.00101438	41	37.6457	-7.28049e-06
2	0	0	1	1	59.9322	0.260651	0.260475	-0.0303268	1	-0.00105017	41	38.8202	-7.89936e-06
2	0	0	1	1	61.1066	0.28414	0.28399	-0.0297951	1	-0.00108547	41	39.9946	-8.46151e-06
2	0	0	1	1	62.2811	0.30763	0.308094	-0.028935	1	-0.00111998	41	41.1691	-8.91469e-06
2	0	0	1	1	63.4555	0.331119	0.331053	-0.0270606	1	-0.00115297	41	42.3435	-8.9585e-06
2	0	0	1	1	64.63	0.354608	0.354202	-0.0232027	1	-0.00118277	41	43.518	-8.21846e-06
2	0	0	1	1	65.8044	0.378097	0.378394	-0.0148561	1	-0.00120568	41	44.6924	-5.62145e-06
2	1	0	1	1	67.0089	0.402186	0.401903	0.00328031	1	-0.00121389	42	0.1499	1.31837e-06
2	1	0	1	1	68.2133	0.426274	0.426093	0.0367108	1	-0.00119145	41	1.3543	1.56422e-05
2	1	0	1	1	69.3878	0.449764	0.44959	0.0814938	1	-0.00112248	41	2.5288	3.66388e-05
2	1	0	1	1	70.5547	0.473103	0.472664	0.118273	2	-0.00100369	40	3.6957	5.59035e-05
2	1	0	1	1	71.7292	0.496592	0.496242	0.129771	2	-0.000854466	40	4.8702	6.43977e-05
2	1	0	1	1	72.9036	0.520081	0.519868	0.119575	2	-0.000705646	40	6.0446	6.2163e-05
2	1	0	1	1	74.0781	0.54357	0.543288	0.102445	2	-0.000573967	40	7.2191	5.56572e-05
2	1	0	1	1	75.2526	0.567059	0.5667	0.0867954	2	-0.000461808	40	8.3936	4.9187e-05
2	1	0	1	1	76.427	0.590548	0.590018	0.0750315	2	-0.000365829	40	9.568	4.42699e-05
2	1	0	1	1	77.6015	0.614037	0.613801	0.0666451	2	-0.000281976	40	10.7425	4.09069e-05
2	1	0	1	1	78.7759	0.637526	0.637281	0.0606644	2	-0.000206885	40	11.9169	3.86603e-05
2	1	0	1	1	79.9504	0.661015	0.660713	0.0567603	2	-0.000137787	40	13.0914	3.75022e-05
2	1	0	1	1	81.1248	0.684505	0.683941	0.0553905	2	-7.19683e-05	40	14.2658	3.78838e-05
2	1	0	1	1	82.2374	0.693251	0.692868	0.0495874	2	-1.11069e-05	40	15.3784	3.43575e-05
2	1	0	1	1	83.4418	0.669162	0.668733	0.0423491	2	4.32512e-05	41	16.5828	2.83203e-05
2	1	0	1	1	84.6163	0.645673	0.645313	0.0395779	2	9.11596e-05	41	17.7573	2.55402e-05
2	1	0	1	1	85.7907	0.622184	0.622037	0.0375236	2	0.000136384	41	18.9317	2.3341e-05
2	1	0	1	1	86.9652	0.598694	0.598345	0.0352856	2	0.000179172	41	20.1062	2.11129e-05
2	1	0	1	1	88.1396	0.575205	0.575421	0.0318664	2	0.000218753	41	21.2806	1.83366e-05
2	1	0	1	1	89.3141	0.551716	0.551575	0.025638	2	0.000252929	41	22.4551	1.41413e-05
2	1	0	1	1	90.4885	0.528227	0.527854	0.0130832	2	0.000276492	41	23.6295	6.90601e-06
2	0	0	1	1	91.723	0.503539	0.503362	-0.0130047	2	0.000278157	41	0.5048	-6.54607e-06
2	0	0	1	1	92.8974	0.480049	0.479856	-0.0540401	2	0.000240046	41	1.6792	-2.59315e-05
2	0	0	1	1	94.0719	0.45656	0.45626	-0.100431	2	0.000148785	41	2.8537	-4.58226e-05
2	0	0	1	1	95.2763	0.432472	0.431993	-0.128042	2	7.85051e-06	40	4.0581	-5.53134e-05
2	0	0	1	1	96.4508	0.408982	0.408721	-0.128208	2	-0.000145751	40	5.2326	-5.24011e-05
2	0	0	1	1	97.6252	0.385493	0.384878	-0.113122	2	-0.00028905	40	6.407	-4.35383e-05
2	0	0	1	1	98.7997	0.362004	0.361659	-0.0961572	2	-0.000412904	40	7.5815	-3.47762e-05
2	0	0	1	1	99.9741	0.338515	0.338355	-0.0824814	2	-0.000518569	40	8.7559	-2.7908e-05
2	0	0	1	1	101.149	0.315026	0.314635	-0.0722848	2	-0.000610101	40	9.9304	-2.27433e-05
2	0	0	1	1	102.323	0.291538	0.29132	-0.0644544	2	-0.000691087	40	11.1048	-1.87768e-05
2	0	0	1	1	103.497	0.268048	0.26762	-0.058642	2	-0.00076419	40	12.2793	-1.56938e-05
2	0	0	1	1	104.672	0.244559	0.244048	-0.0538914	2	-0.000831263	40	13.4538	-1.31521e-05
2	0	0	1	1	105.846	0.22107	0.220665	-0.0500729	2	-0.000893592	40	14.6282	-1.10493e-05
2	0	0	1	1	107.021	0.197581	0.197417	-0.0469514	2	-0.000952073	40	15.8027	-9.26898e-06
2	0	0	1	1	108.195	0.174092	0.173646	-0.0444472	2	-0.00100743	40	16.9771	-7.71805e-06
2	0	0	1	1	109.4	0.150003	0.149712	-0.0439254	2	-0.00106153	41	18.1816	-6.57614e-06
2	0	0	1	1	110.574	0.126514	0.126205	-0.0421897	2	-0.00111209	41	19.356	-5.32457e-06
2	0	0	1	1	111.749	0.103025	0.102897	-0.0408224	2	-0.00116085	41	20.5305	-4.20051e-06
2	0	0	1	1	112.923	0.0795355	0.0790175	-0.0395928	2	-0.00120807	41	21.7049	-3.12852e-06
2	0	0	1	1	114.098	0.0560464	0.0559366	-0.0385828	2	-0.00125397	41	22.8794	-2.15819e-06
2	0	0	1	1	115.272	0.0325573	0.0320085	-0.0375968	2	-0.0012987	41	24.0538	-1.20342e-06
2	0	0	1	1	116.446	0.00906818	0.0087045	-0.0368098	2	-0.00134243	41	25.2283	-3.20411e-07
2	0	0	1	0	117.589	0.013766	0.0138316	-0.035168	2	-0.00138346	41	26.3709	-4.8643e-07
2	0	0	1	0	118.764	0.037256	0.0370268	-0.0344578	2	-0.0014243	41	27.5454	-1.27586e-06
2	0	0	1	0	119.938	0.0607442	0.0604075	-0.0338949	2	-0.00146439	41	28.7198	-2.04751e-06
2	0	0	1	0	121.112	0.0842333	0.0840517	-0.0333718	2	-0.00150385	41	29.8943	-2.80496e-06
2	0	0	1	0	122.287	0.107722	0.107582	-0.0329458	2	-0.00154275	41	31.0687	-3.54437e-06
2	0	0	1	0	123.461	0.131211	0.130884	-0.0326059	2	-0.00158118	41	32.2432	-4.26759e-06
2	0	0	1	0	124.636	0.154701	0.154053	-0.032192	2	-0.00161919	41	33.4176	-4.95927e-06
2	0	0	1	0	125.81	0.17819	0.177832	-0.03189	2	-0.00165681	41	34.5921	-5.67106e-06
2	0	0	1	0	126.985	0.201679	0.201491	-0.0315868	2	-0.00169407	41	35.7665	-6.36446e-06
2	0	0	1	0	128.159	0.225168	0.224997	-0.0312735	2	-0.00173099	41	36.941	-7.03644e-06
2	0	0	1	0	129.334	0.248657	0.24824	-0.0309205	2	-0.00176753	41	38.1154	-7.67572e-06
2	0	0	1	0	130.508	0.272146	0.271516	-0.0305301	2	-0.00180363	41	39.2899	-8.28942e-06
2	0	0	1	0	131.683	0.295635	0.295306	-0.0299019	2	-0.00183913	41	40.4644	-8.83023e-06
2	0	0	1	0	132.857	0.319124	0.318911	-0.0285892	2	-0.00187355	41	41.6388	-9.11741e-06
2	0	0	1	0	134.031	0.342613	0.342134	-0.0260135	2	-0.0019058	41	42.8133	-8.90011e-06
2	0	0	1	0	135.206	0.366102	0.366141	-0.0202787	2	-0.00193341	41	43.9877	-7.42484e-06
2	0	0	1	0	136.38	0.389591	0.389645	-0.00823467	2	-0.00195107	41	45.1622	-3.2086e-06
2	1	0	1	0	137.615	0.41428	0.413777	0.0175918	2	-0.00194706	41	0.7297	7.27908e-06
2	1	0	1	0	138.789	0.437769	0.437321	0.0575907	2	-0.00190414	41	1.9042	2.51856e-05
2	1	0	1	0	139.883	0.459684	0.459797	0.0994306	2	-0.00181779	41	2.9979	4.57179e-05