File: Python/Data/GoldElectrode/240319/Gold/240319-CVEIS_Activation-0p5H2SO4-Ag_AgCl_BLF8-Au_RDE-80cycles_06_PEIS_C15.mpt
EC-Lab ASCII FILE
Nb header lines : 66

Potentio Electrochemical Impedance Spectroscopy

Run on channel : 15 (SN 19485)
User :
Electrode connection : standard
Potential control : Ewe
Ewe ctrl range : min = -2.50 V, max = 2.50 V
Ewe,I filtering : 50 kHz
Safety Limits :
	Do not start on E overload
Channel : Floating
Acquisition started on : 03/19/2024 13:27:19.036
Loaded Setting File :  C:\Data\mathias\GoldElectrode\240313-CVEIS_Activation-0p5H2SO4-Ag_AgCl_BLF8-Au_RDE-80cycles.mps
Saved on :
	File : 240319-CVEIS_Activation-0p5H2SO4-Ag_AgCl_BLF8-Au_RDE-80cycles_06_PEIS_C15.mpr
	Directory : C:\Data\mathias\GoldElectrode\
	Host : 192.168.0.1
Device : VMP-300 (SN 0826)
Address : USB
EC-Lab for windows v11.52 (software)
Internet server v11.52 (firmware)
Command interpretor v11.52 (firmware)
Electrode material :
Initial state :
Electrolyte :
Comments :
Cable : special
Electrode surface area : 0.001 cm²
Characteristic mass : 0.001 g
Equivalent Weight : 0.000 g/eq.
Density : 0.000 g/cm3
Volume (V) : 0.001 cm³
Record EIS quality indicators
Cycle Definition : Charge/Discharge alternance
Mode                Single sine
E (V)               0.0000
vs.                 Eoc
tE (h:m:s)          0:00:0.0000
record              0
dI                  0.000
unit dI             mA
dt (s)              0.000
fi                  100.000
unit fi             kHz
ff                  100.000
unit ff             Hz
Nd                  10
Points              per decade
spacing             Logarithmic
Va (mV)             5.0
pw                  0.10
Na                  2
corr                0
E range min (V)     -2.500
E range max (V)     2.500
I Range             Auto
Bandwidth           8
nc cycles           0
goto Ns'            0
nr cycles           0
inc. cycle          0

freq/Hz	Re(Z)/Ohm	-Im(Z)/Ohm	|Z|/Ohm	Phase(Z)/deg	time/s	<Ewe>/V	<I>/mA	Cs/µF	Cp/µF	cycle number	I Range	|Ewe|/V	|I|/A	Ns	(Q-Qo)/mA.h	THD Ewe/%	NSD Ewe/%	NSR Ewe/%	|Ewe h2|/V	|Ewe h3|/V	|Ewe h4|/V	|Ewe h5|/V	|Ewe h6|/V	|Ewe h7|/V	THD I/%	NSD I/%	NSR I/%	|I h2|/A	|I h3|/A	|I h4|/A	|I h5|/A	|I h6|/A	|I h7|/A	Re(Y)/Ohm-1	Im(Y)/Ohm-1	|Y|/Ohm-1	Phase(Y)/deg	Re(C)/nF	Im(C)/nF	|C|/nF	Phase(C)/deg	Re(M)	Im(M)	|M|	Phase(M)/deg	Re(Permittivity)	Im(Permittivity)	|Permittivity|	Phase(Permittivity)/deg	Re(Resistivity)/Ohm.cm	Im(Resistivity)/Ohm.cm	|Resistivity|/Ohm.cm	Phase(Resistivity)/deg	Re(Conductivity)/mS/cm	Im(Conductivity)/mS/cm	|Conductivity|/mS/cm	Phase(Conductivity)/deg	Tan(Delta)	Loss Angle(Delta)/deg	dq/mA.h
100004	7.60331	0.599291	7.62689	-4.50672	776.068	0.631081	-0.0177334	2.65562	0.0163963	1	38	0.00478025	0.000626762	0	-4.57166e-06	4.33659	1.48602	78.6719	4.88474e-05	0.000149142	3.43189e-05	8.38644e-05	5.84095e-05	7.09271e-05	0.30507	0.157356	6.1578	3.23946e-07	1.41946e-06	5.6029e-07	6.36025e-07	5.79694e-07	3.29935e-07	0.13071	0.0103025	0.131115	4.50672	16.3963	208.023	208.668	-85.4933	0.0000000E+000	0.0000000E+000	0.0000000E+000	85.4933	0.0000000E+000	0.0000000E+000	0.0000000E+000	-85.4933	0.0000000E+000	0.0000000E+000	0.0000000E+000	-4.50672	0.0000000E+000	0.0000000E+000	0.0000000E+000	4.50672	12.6872	85.4933	-4.57166e-06
63093.8	7.64266	0.687904	7.67356	-5.14324	777.696	0.631026	-0.00838458	3.66695	0.0294691	1	38	0.00522881	0.000681406	0	-9.9343e-06	4.4525	4.95867	73.3431	2.58667e-05	9.69279e-05	8.67758e-05	0.00016958	5.20378e-05	4.95247e-05	0.376445	0.338323	5.57782	3.71722e-07	6.09446e-07	1.00728e-06	1.91981e-06	7.98514e-07	3.49602e-07	0.129793	0.0116825	0.130318	5.14324	29.4691	327.404	328.728	-84.8568	0.0000000E+000	0.0000000E+000	0.0000000E+000	84.8568	0.0000000E+000	0.0000000E+000	0.0000000E+000	-84.8568	0.0000000E+000	0.0000000E+000	0.0000000E+000	-5.14324	0.0000000E+000	0.0000000E+000	0.0000000E+000	5.14324	11.1101	84.8568	-3.28833e-06
39814.1	7.67763	0.810531	7.7203	-6.02642	779.324	0.631033	-0.00824122	4.9319	0.0543607	1	38	0.00522309	0.000676541	0	-1.37429e-05	3.25348	1.27577	74.822	8.57043e-05	3.71106e-05	9.80815e-05	2.78605e-05	6.56624e-05	5.77627e-05	0.253496	0.187706	5.64478	6.65526e-07	1.12368e-06	4.88587e-07	4.49e-07	5.27063e-07	4.4555e-07	0.128813	0.0135988	0.129529	6.02642	54.3608	514.924	517.785	-83.9736	0.0000000E+000	0.0000000E+000	0.0000000E+000	83.9736	0.0000000E+000	0.0000000E+000	0.0000000E+000	-83.9736	0.0000000E+000	0.0000000E+000	0.0000000E+000	-6.02642	0.0000000E+000	0.0000000E+000	0.0000000E+000	6.02642	9.47235	83.9736	-1.55737e-06
25116.9	7.74034	1.0955	7.81748	-8.05566	780.952	0.631043	-0.00860802	5.78416	0.113588	1	38	0.00519324	0.000664311	0	-1.56424e-05	8.63367	1.20323	74.8205	0.000412442	7.54177e-05	7.29561e-05	5.55292e-05	2.27085e-05	0.000116736	0.588892	0.200025	5.70955	3.35431e-06	9.90077e-07	9.84882e-07	7.38712e-07	6.95541e-07	6.9879e-07	0.126656	0.0179259	0.127918	8.05566	113.588	802.566	810.564	-81.9443	0.0000000E+000	0.0000000E+000	0.0000000E+000	81.9443	0.0000000E+000	0.0000000E+000	0.0000000E+000	-81.9443	0.0000000E+000	0.0000000E+000	0.0000000E+000	-8.05566	0.0000000E+000	0.0000000E+000	0.0000000E+000	8.05566	7.06556	81.9443	-7.27489e-07
15847.7	7.84662	1.41008	7.97231	-10.1876	782.58	0.631027	-0.00842182	7.12215	0.222807	1	38	0.00510582	0.000640444	0	-1.92112e-05	4.28508	1.34211	75.9282	8.61626e-05	3.03144e-05	7.95854e-05	0.000146056	8.02953e-05	6.21386e-05	0.318874	0.138854	5.88631	2.49073e-07	9.45936e-07	5.28238e-07	1.10602e-06	1.0548e-06	6.79557e-07	0.123457	0.0221858	0.125434	10.1876	222.807	1239.85	1259.71	-79.8124	0.0000000E+000	0.0000000E+000	0.0000000E+000	79.8124	0.0000000E+000	0.0000000E+000	0.0000000E+000	-79.8124	0.0000000E+000	0.0000000E+000	0.0000000E+000	-10.1876	0.0000000E+000	0.0000000E+000	0.0000000E+000	10.1876	5.56467	79.8124	-1.1282e-06
10002.2	8.05437	2.04137	8.30904	-14.2221	784.208	0.631014	-0.00808481	7.79475	0.470483	1	38	0.00521065	0.000627106	0	-2.17033e-05	3.43259	1.42927	74.7284	3.99375e-05	6.71971e-05	6.66796e-05	7.6935e-05	9.17949e-05	4.81096e-05	0.217685	0.184522	6.04615	6.91184e-08	5.27145e-07	4.74276e-07	8.30453e-07	6.38186e-07	4.1005e-07	0.116662	0.0295679	0.120351	14.2221	470.483	1856.32	1915.02	-75.7779	0.0000000E+000	0.0000000E+000	0.0000000E+000	75.7779	0.0000000E+000	0.0000000E+000	0.0000000E+000	-75.7779	0.0000000E+000	0.0000000E+000	0.0000000E+000	-14.2221	0.0000000E+000	0.0000000E+000	0.0000000E+000	14.2221	3.94558	75.7779	-1.36696e-06
6307.74	8.1885	2.92799	8.69624	-19.6757	785.956	0.630851	-0.00811461	8.61742	0.976906	1	38	0.0051129	0.000587943	0	-2.4947e-05	4.84539	3.50781	73.5728	3.05475e-05	8.41352e-05	5.06971e-05	0.000179592	2.2987e-05	0.000108051	0.386603	0.292734	6.48285	7.97727e-07	6.85571e-07	9.42712e-07	1.37586e-06	6.00312e-07	8.20165e-07	0.108278	0.0387174	0.114992	19.6757	976.907	2732.04	2901.45	-70.3243	0.0000000E+000	0.0000000E+000	0.0000000E+000	70.3243	0.0000000E+000	0.0000000E+000	0.0000000E+000	-70.3243	0.0000000E+000	0.0000000E+000	0.0000000E+000	-19.6757	0.0000000E+000	0.0000000E+000	0.0000000E+000	19.6757	2.79663	70.3243	-1.32881e-06
3981.28	8.59787	4.30713	9.61637	-26.6087	787.677	0.63092	-0.00749831	9.28132	1.86193	1	38	0.00512031	0.000532458	0	-2.76652e-05	4.10369	1.40313	74.1701	5.01175e-05	6.79831e-05	8.61234e-05	9.54732e-05	0.000113719	7.27203e-05	0.371931	0.147094	7.23743	4.07826e-07	9.50249e-07	8.26862e-07	1.35994e-06	1.87618e-07	4.74553e-07	0.0929754	0.0465763	0.103989	26.6087	1861.93	3716.77	4157.06	-63.3913	0.0000000E+000	0.0000000E+000	0.0000000E+000	63.3913	0.0000000E+000	0.0000000E+000	0.0000000E+000	-63.3913	0.0000000E+000	0.0000000E+000	0.0000000E+000	-26.6087	0.0000000E+000	0.0000000E+000	0.0000000E+000	26.6087	1.99619	63.3913	-1.31715e-06
2512.41	8.70625	6.40596	10.809	-36.3452	789.163	0.630881	-0.00746852	9.88883	3.47328	1	38	0.00510847	0.000472612	0	-3.05675e-05	4.17033	1.98733	76.9116	0.000116243	3.83204e-05	0.000141434	6.01798e-05	4.58551e-05	5.95451e-05	0.463763	0.147526	8.06723	5.07971e-07	1.01718e-06	1.16651e-06	9.46632e-07	7.61953e-07	6.82567e-07	0.0745174	0.054829	0.0925152	36.3452	3473.28	4720.49	5860.61	-53.6548	0.0000000E+000	0.0000000E+000	0.0000000E+000	53.6548	0.0000000E+000	0.0000000E+000	0.0000000E+000	-53.6548	0.0000000E+000	0.0000000E+000	0.0000000E+000	-36.3452	0.0000000E+000	0.0000000E+000	0.0000000E+000	36.3452	1.35909	53.6548	-1.78703e-06
1584.49	9.25657	9.86682	13.5292	-46.8278	790.651	0.630972	-0.00542784	10.1801	5.41459	1	38	0.00507918	0.000375424	0	-3.34361e-05	4.18188	2.33012	75.6173	0.0001362	3.46475e-05	5.83091e-05	7.55281e-05	4.97728e-05	0.000107526	0.418942	0.286024	10.2368	1.05655e-06	5.10231e-07	3.24516e-07	3.84153e-07	4.85986e-07	6.02819e-07	0.0505718	0.0539058	0.0739144	46.8278	5414.59	5079.7	7424.36	-43.1722	0.0000000E+000	0.0000000E+000	0.0000000E+000	43.1722	0.0000000E+000	0.0000000E+000	0.0000000E+000	-43.1722	0.0000000E+000	0.0000000E+000	0.0000000E+000	-46.8278	0.0000000E+000	0.0000000E+000	0.0000000E+000	46.8278	0.938151	43.1722	-1.62676e-06
999.682	9.87139	14.701	17.7077	-56.1195	792.138	0.631034	-0.00669024	10.8296	7.46414	1	38	0.00487136	0.000275098	0	-3.58408e-05	4.1314	5.80517	78.814	0.000105025	7.40576e-05	6.12522e-05	9.60501e-05	3.44095e-05	6.60136e-05	0.902099	0.801186	14.084	1.29956e-06	3.43177e-07	4.66698e-07	1.53941e-06	8.62991e-07	8.67773e-07	0.0314813	0.0468836	0.0564725	56.1195	7464.14	5012	8990.75	-33.8805	0.0000000E+000	0.0000000E+000	0.0000000E+000	33.8805	0.0000000E+000	0.0000000E+000	0.0000000E+000	-33.8805	0.0000000E+000	0.0000000E+000	0.0000000E+000	-56.1195	0.0000000E+000	0.0000000E+000	0.0000000E+000	56.1195	0.671478	33.8805	-9.88341e-07
631.01	11.3827	22.7231	25.4147	-63.3923	793.622	0.630852	-0.0048041	11.0998	8.87324	1	38	0.00493269	0.000194088	0	-3.76027e-05	4.23997	3.20635	78.6766	4.63276e-05	5.23065e-05	8.2206e-05	0.000136143	5.50385e-05	8.00281e-05	0.962512	0.356498	19.6213	7.52817e-07	8.04177e-07	5.88476e-07	7.68452e-07	3.88795e-07	8.70289e-07	0.0176228	0.0351802	0.0393473	63.3923	8873.24	4444.88	9924.28	-26.6077	0.0000000E+000	0.0000000E+000	0.0000000E+000	26.6077	0.0000000E+000	0.0000000E+000	0.0000000E+000	-26.6077	0.0000000E+000	0.0000000E+000	0.0000000E+000	-63.3923	0.0000000E+000	0.0000000E+000	0.0000000E+000	63.3923	0.500931	26.6077	-5.3309e-07
398.089	14.1216	34.0765	36.8866	-67.4904	795.363	0.630897	-0.000589918	11.7324	10.0128	1	39	0.00506366	0.000137276	0	-3.8219e-05	4.4143	3.2316	73.8244	5.45064e-05	4.30603e-05	4.22148e-05	7.44083e-05	7.93568e-05	0.000174364	0.834108	0.534487	12.7027	5.38544e-07	6.57712e-07	3.12515e-07	3.25438e-07	4.05884e-07	4.0137e-07	0.0103788	0.0250447	0.0271101	67.4904	10012.8	4149.4	10838.5	-22.5096	0.0000000E+000	0.0000000E+000	0.0000000E+000	22.5096	0.0000000E+000	0.0000000E+000	0.0000000E+000	-22.5096	0.0000000E+000	0.0000000E+000	0.0000000E+000	-67.4904	0.0000000E+000	0.0000000E+000	0.0000000E+000	67.4904	0.414409	22.5096	-1.23804e-07
251.206	18.7313	51.4807	54.7825	-70.0061	796.848	0.63092	-0.000206909	12.3068	10.868	1	39	0.00501826	9.16034e-05	0	-3.8543e-05	2.87644	1.48714	74.3934	9.30882e-05	3.88148e-05	3.96704e-05	3.9237e-05	4.73742e-05	6.56555e-05	1.11463	0.540443	18.1817	6.63546e-07	2.14282e-07	1.96191e-07	2.61289e-07	4.89009e-07	4.08261e-07	0.00624141	0.0171538	0.018254	70.0061	10868	3954.33	11565.1	-19.9939	0.0000000E+000	0.0000000E+000	0.0000000E+000	19.9939	0.0000000E+000	0.0000000E+000	0.0000000E+000	-19.9939	0.0000000E+000	0.0000000E+000	0.0000000E+000	-70.0061	0.0000000E+000	0.0000000E+000	0.0000000E+000	70.0061	0.36385	19.9939	-1.94872e-07
158.529	24.0472	76.5808	80.2676	-72.5672	798.339	0.630917	-0.000504744	13.1097	11.933	1	39	0.00494731	6.16353e-05	0	-3.85799e-05	2.48164	1.80274	75.9955	2.70544e-05	5.22165e-05	5.32707e-05	6.11146e-05	4.53842e-05	3.41223e-05	1.51904	0.542284	28.1265	3.71723e-07	3.38904e-07	2.74612e-07	4.75168e-07	3.55264e-07	3.05482e-07	0.00373236	0.0118861	0.0124583	72.5672	11933	3747.1	12507.5	-17.4328	0.0000000E+000	0.0000000E+000	0.0000000E+000	17.4328	0.0000000E+000	0.0000000E+000	0.0000000E+000	-17.4328	0.0000000E+000	0.0000000E+000	0.0000000E+000	-72.5672	0.0000000E+000	0.0000000E+000	0.0000000E+000	72.5672	0.314011	17.4328	3.47226e-08
99.9682	32.3373	115.795	120.226	-74.397	799.813	0.631004	-0.000570164	13.7489	12.7542	1	39	0.00507072	4.21765e-05	0	-3.88211e-05	9.30609	6.52581	72.2031	0.000167801	0.000191938	0.000167114	5.19976e-05	0.000343397	7.9599e-05	2.95634	1.39023	39.9109	4.02538e-07	4.70514e-07	1.17157e-07	6.02513e-07	4.5253e-07	7.1324e-07	0.00223721	0.00801115	0.00831767	74.397	12754.2	3561.77	13242.2	-15.603	0.0000000E+000	0.0000000E+000	0.0000000E+000	15.603	0.0000000E+000	0.0000000E+000	0.0000000E+000	-15.603	0.0000000E+000	0.0000000E+000	0.0000000E+000	-74.397	0.0000000E+000	0.0000000E+000	0.0000000E+000	74.397	0.279262	15.6031	-9.58414e-08