File: Python/Data/GoldElectrode/240319/Gold/240319-CVEIS_Activation-0p5H2SO4-Ag_AgCl_BLF8-Au_RDE-80cycles_01_CV_C15.mpt
EC-Lab ASCII FILE
Nb header lines : 60

Cyclic Voltammetry

Run on channel : 15 (SN 19485)
User :
Electrode connection : standard
Potential control : Ewe
Ewe ctrl range : min = -2.50 V, max = 2.50 V
Ewe,I filtering : 50 kHz
Safety Limits :
	Do not start on E overload
Channel : Floating
Acquisition started on : 03/19/2024 13:27:19.036
Loaded Setting File :  C:\Data\mathias\GoldElectrode\240313-CVEIS_Activation-0p5H2SO4-Ag_AgCl_BLF8-Au_RDE-80cycles.mps
Saved on :
	File : 240319-CVEIS_Activation-0p5H2SO4-Ag_AgCl_BLF8-Au_RDE-80cycles_01_CV_C15.mpr
	Directory : C:\Data\mathias\GoldElectrode\
	Host : 192.168.0.1
Device : VMP-300 (SN 0826)
Address : USB
EC-Lab for windows v11.52 (software)
Internet server v11.52 (firmware)
Command interpretor v11.52 (firmware)
Electrode material :
Initial state :
Electrolyte :
Comments :
Cable : special
Electrode surface area : 0.001 cm²
Characteristic mass : 0.001 g
Equivalent Weight : 0.000 g/eq.
Density : 0.000 g/cm3
Volume (V) : 0.001 cm³
Record EIS quality indicators
Cycle Definition : Charge/Discharge alternance
Ei (V)              0.000
vs.                 Eoc
dE/dt               200.000
dE/dt unit          mV/s
E1 (V)              1.500
vs.                 Ref
Step percent        50
N                   10
E range min (V)     -2.500
E range max (V)     2.500
I Range             Auto
I Range min         Unset
I Range max         Unset
I Range init        Unset
Bandwidth           8
E2 (V)              -0.300
vs.                 Ref
nc cycles           0
Reverse Scan        1
Ef (V)              0.000
vs.                 Eoc

mode	ox/red	error	control changes	counter inc.	time/s	control/V	Ewe/V	<I>/mA	cycle number	(Q-Qo)/C	I Range	step time/s	P/W
2	1	0	0	0	0.000000000000000E+000	0.632045	0.631303	0.000515194	1	0.0000000E+000	43	0.000000000000000E+000	3.25244e-07
2	1	0	1	0	0.1778	0.667577	0.66766	0.00607366	1	8.67945e-07	42	0.16	4.05514e-06
2	1	0	1	0	0.3277	0.697562	0.697661	0.00623935	1	1.795e-06	42	0.3099	4.35295e-06
2	1	0	1	0	0.4776	0.727547	0.727629	0.00621777	1	2.72976e-06	42	0.4598	4.52424e-06
2	1	0	1	0	0.6275	0.757532	0.757626	0.0062111	1	3.66046e-06	42	0.6097	4.70569e-06
2	1	0	1	0	0.7775	0.787517	0.787596	0.00613752	1	4.58275e-06	42	0.7597	4.83389e-06
2	1	0	1	0	0.9274	0.817502	0.817574	0.00608654	1	5.49384e-06	42	0.9096	4.9762e-06
2	1	0	1	0	1.0773	0.847486	0.847579	0.00594566	1	6.39052e-06	42	1.0595	5.03941e-06
2	1	0	1	0	1.2272	0.877471	0.877542	0.00582725	1	7.27033e-06	42	1.2094	5.11366e-06
2	1	0	1	0	1.3772	0.907456	0.907541	0.00572171	1	8.13319e-06	42	1.3594	5.19269e-06
2	1	0	1	0	1.5271	0.937441	0.937534	0.0055804	1	8.97826e-06	42	1.5093	5.23182e-06
2	1	0	1	0	1.677	0.967426	0.967514	0.00544441	1	9.8035e-06	42	1.6592	5.26754e-06
2	1	0	1	0	1.8269	0.997411	0.997497	0.00532071	1	1.06087e-05	42	1.8091	5.30739e-06
2	1	0	1	0	1.9768	1.02739	1.02746	0.00522519	1	1.13952e-05	42	1.959	5.36867e-06
2	1	0	1	0	2.1268	1.05738	1.05747	0.0051673	1	1.21693e-05	42	2.109	5.46425e-06
2	1	0	1	0	2.2767	1.08737	1.08746	0.00524241	1	1.29433e-05	42	2.2589	5.70092e-06
2	1	0	1	0	2.4266	1.11735	1.11743	0.00573905	1	1.37565e-05	42	2.4088	6.41297e-06
2	1	0	1	0	2.5765	1.14733	1.14739	0.00708061	1	1.46974e-05	42	2.5587	8.12425e-06
2	1	0	1	0	2.7265	1.17732	1.17737	0.0107558	1	1.5995e-05	42	2.7087	1.26636e-05
2	1	0	1	0	2.9064	1.2133	1.21338	0.0202437	1	1.86746e-05	41	2.8886	2.45634e-05
2	1	0	1	0	3.0563	1.24329	1.24339	0.0320204	1	2.25619e-05	41	3.0385	3.98139e-05
2	1	0	1	0	3.2062	1.27327	1.27336	0.0460107	1	2.83816e-05	41	3.1884	5.8588e-05
2	1	0	1	0	3.3562	1.30326	1.30333	0.063231	1	3.65234e-05	41	3.3384	8.24108e-05
2	1	0	1	0	3.5061	1.33324	1.3333	0.0851383	1	4.75899e-05	41	3.4883	0.000113515
2	1	0	1	0	3.671	1.36622	1.3663	0.111639	1	6.38548e-05	41	3.6532	0.000152532
2	1	0	1	0	3.8359	1.39921	1.3993	0.1295	1	8.39584e-05	40	3.8181	0.000181209
2	1	0	1	0	3.9858	1.42919	1.42928	0.129158	1	0.000103512	40	3.968	0.000184603
2	1	0	1	0	4.1358	1.45918	1.45926	0.120222	1	0.000122248	40	4.118	0.000175435
2	1	0	1	0	4.2857	1.48916	1.48924	0.112369	1	0.000139628	40	4.2679	0.000167344
2	1	0	1	0	4.4277	1.48247	1.4825	0.0621111	1	0.000152886	40	4.4099	9.20797e-05
2	1	0	1	0	4.5776	1.45248	1.45252	0.0288739	1	0.000159302	40	4.5598	4.19397e-05
2	1	0	1	0	4.7575	1.4165	1.41652	0.0130759	1	0.000162941	41	4.7397	1.85222e-05
2	1	0	1	0	4.9075	1.38651	1.38654	0.00686198	1	0.000164388	41	4.8897	9.51438e-06
2	1	0	1	0	5.0874	1.35053	1.35049	0.00316196	1	0.00016524	42	5.0696	4.27019e-06
2	1	0	1	0	5.2373	1.32055	1.32056	0.000930731	1	0.000165514	42	5.2195	1.22909e-06
2	0	0	1	0	5.3872	1.29056	1.29056	-0.000358255	1	0.000165552	42	0.04	-4.6235e-07
2	0	0	1	0	5.5371	1.26058	1.26061	-0.00131317	1	0.000165422	42	0.1899	-1.6554e-06
2	0	0	1	0	5.6871	1.23059	1.23064	-0.00220949	1	0.000165155	42	0.3399	-2.71908e-06
2	0	0	1	0	5.837	1.20061	1.20065	-0.00314865	1	0.000164754	42	0.4898	-3.78042e-06
2	0	0	1	0	5.9869	1.17062	1.17065	-0.00427744	1	0.000164199	42	0.6397	-5.00737e-06
2	0	0	1	0	6.1368	1.14064	1.14068	-0.00592725	1	0.000163441	42	0.7896	-6.7611e-06
2	0	0	1	0	6.2868	1.11065	1.11071	-0.00829017	1	0.00016239	42	0.9396	-9.20797e-06
2	0	0	1	0	6.4667	1.07467	1.0747	-0.0129844	1	0.000160528	41	1.1195	-1.39543e-05
2	0	0	1	0	6.6166	1.04469	1.04473	-0.0201085	1	0.000158093	41	1.2694	-2.10081e-05
2	0	0	1	0	6.7665	1.0147	1.01475	-0.0331867	1	0.0001542	41	1.4193	-3.36762e-05
2	0	0	1	0	6.9164	0.984717	0.984774	-0.0596444	1	0.000147478	41	1.5692	-5.87362e-05
2	0	0	1	0	7.0964	0.948735	0.948743	-0.129205	1	0.000131492	40	1.7492	-0.000122582
2	0	0	1	0	7.2463	0.91875	0.918778	-0.21014	1	0.000105786	40	1.8991	-0.000193072
2	0	0	1	0	7.3962	0.888766	0.888782	-0.195037	1	7.34995e-05	40	2.049	-0.000173345
2	0	0	1	0	7.5461	0.858781	0.858801	-0.092176	1	5.21357e-05	40	2.1989	-7.91609e-05
2	0	0	1	0	7.726	0.822799	0.822828	-0.0382809	1	4.14294e-05	41	2.3788	-3.14986e-05
2	0	0	1	0	7.876	0.792814	0.792813	-0.0259242	1	3.67748e-05	41	2.5288	-2.05531e-05
2	0	0	1	0	8.0259	0.762829	0.762848	-0.0212667	1	3.32845e-05	41	2.6787	-1.62233e-05
2	0	0	1	0	8.1758	0.732844	0.732863	-0.0189598	1	3.02727e-05	41	2.8286	-1.38949e-05
2	0	0	1	0	8.3257	0.702859	0.702898	-0.0168335	1	2.75858e-05	41	2.9785	-1.18322e-05
2	0	0	1	0	8.4757	0.672875	0.672928	-0.015353	1	2.51763e-05	41	3.1285	-1.03315e-05
2	0	0	1	0	8.6256	0.64289	0.642942	-0.0145189	1	2.29388e-05	41	3.2784	-9.33484e-06
2	0	0	1	0	8.7755	0.612905	0.612949	-0.0140377	1	2.08017e-05	41	3.4283	-8.60438e-06
2	0	0	1	0	8.9254	0.58292	0.582956	-0.0137685	1	1.87167e-05	41	3.5782	-8.02641e-06
2	0	0	1	0	9.0754	0.552935	0.552997	-0.0137083	1	1.66516e-05	41	3.7282	-7.58067e-06
2	0	0	1	0	9.2253	0.52295	0.522999	-0.0136056	1	1.46012e-05	41	3.8781	-7.11571e-06
2	0	0	1	0	9.3752	0.492965	0.493008	-0.0134146	1	1.25747e-05	41	4.028	-6.61353e-06
2	0	0	1	0	9.5251	0.462981	0.463034	-0.0130933	1	1.05826e-05	41	4.1779	-6.06264e-06
2	0	0	1	0	9.675	0.433005	0.433068	-0.012781	1	8.6425e-06	41	4.3278	-5.53503e-06
2	0	0	1	0	9.825	0.403011	0.403054	-0.0120407	1	6.7809e-06	41	4.4778	-4.85307e-06
2	0	0	1	0	9.9749	0.373026	0.373074	-0.0113291	1	5.026e-06	41	4.6277	-4.22661e-06
2	0	0	1	0	10.1248	0.343041	0.343106	-0.010638	1	3.37738e-06	41	4.7776	-3.64996e-06
2	0	0	1	0	10.2747	0.313056	0.313134	-0.0100446	1	1.82726e-06	41	4.9275	-3.14529e-06
2	0	0	1	0	10.4247	0.283071	0.283092	-0.00951734	1	3.58931e-07	41	5.0775	-2.69428e-06
2	0	0	1	0	10.5746	0.253087	0.253149	-0.00920517	1	-1.04483e-06	41	5.2274	-2.33028e-06
2	0	0	1	0	10.7245	0.223102	0.223204	-0.00891819	1	-2.40343e-06	41	5.3773	-1.99058e-06
2	0	0	1	0	10.8744	0.193117	0.193172	-0.00880199	1	-3.73374e-06	41	5.5272	-1.7003e-06
2	0	0	1	0	11.0244	0.163132	0.163203	-0.00872305	1	-5.05037e-06	41	5.6772	-1.42363e-06
2	0	0	1	0	11.1743	0.133147	0.133215	-0.00884821	1	-6.36482e-06	41	5.8271	-1.17871e-06
2	0	0	1	0	11.3242	0.103162	0.103261	-0.00910333	1	-7.70383e-06	41	5.977	-9.40022e-07
2	0	0	1	0	11.4741	0.0731775	0.0732267	-0.00976383	1	-9.11285e-06	41	6.1269	-7.14973e-07
2	0	0	1	0	11.6241	0.0431927	0.0432838	-0.0110244	1	-1.06634e-05	41	6.2769	-4.77178e-07
2	0	0	1	0	11.774	0.0132078	0.0133083	-0.0129443	1	-1.24494e-05	41	6.4268	-1.72267e-07
2	0	0	1	0	11.9239	-0.0167771	-0.0166836	-0.0152909	1	-1.45625e-05	41	6.5767	2.55107e-07
2	0	0	1	0	12.0738	-0.0467619	-0.0466829	-0.0172219	1	-1.70109e-05	41	6.7266	8.03969e-07
2	0	0	1	0	12.2238	-0.0767468	-0.0766648	-0.0178462	1	-1.96596e-05	41	6.8766	1.36818e-06
2	0	0	1	0	12.3737	-0.106732	-0.106653	-0.0172063	1	-2.22959e-05	41	7.0265	1.8351e-06
2	0	0	1	0	12.5236	-0.136717	-0.136612	-0.0160015	1	-2.47836e-05	41	7.1764	2.186e-06
2	0	0	1	0	12.6735	-0.166701	-0.166603	-0.0148458	1	-2.70905e-05	41	7.3263	2.47337e-06
2	0	0	1	0	12.8235	-0.196686	-0.196599	-0.013875	1	-2.92399e-05	41	7.4763	2.72781e-06
2	0	0	1	0	12.9734	-0.226671	-0.226996	-0.0132856	1	-3.12695e-05	41	7.6262	3.01577e-06
2	0	0	1	0	13.1233	-0.256656	-0.25695	-0.0131798	1	-3.32401e-05	41	7.7761	3.38655e-06
2	0	0	1	0	13.2732	-0.286641	-0.286921	-0.0142595	1	-3.52743e-05	41	7.926	4.09136e-06
2	0	0	1	1	13.4181	-0.284442	-0.284695	-0.00893347	1	-3.70795e-05	41	8.0709	2.54331e-06
2	0	0	1	1	13.568	-0.254457	-0.254718	-0.00583307	1	-3.81558e-05	41	8.2208	1.48579e-06
2	0	0	1	1	13.7179	-0.224472	-0.224703	-0.00434488	1	-3.89137e-05	41	8.3707	9.76306e-07
2	0	0	1	1	13.8978	-0.18849	-0.188745	-0.00321628	1	-3.95969e-05	42	8.5506	6.07055e-07
2	0	0	1	1	14.0477	-0.158506	-0.158745	-0.0023241	1	-4.00088e-05	42	8.7005	3.68939e-07
2	0	0	1	1	14.1977	-0.128521	-0.128757	-0.00147825	1	-4.02914e-05	42	8.8505	1.90334e-07
2	0	0	1	1	14.3476	-0.0985358	-0.0987973	-0.000559349	1	-4.04414e-05	42	9.0004	5.52622e-08
2	1	0	1	1	14.4975	-0.0685509	-0.0687938	0.00038034	1	-4.04523e-05	42	0.065	-2.6165e-08
2	1	0	1	1	14.6474	-0.0385661	-0.0388047	0.00141938	1	-4.03178e-05	42	0.2149	-5.50787e-08
2	1	0	1	1	14.7974	-0.0085812	-0.00883552	0.00233306	1	-4.00362e-05	42	0.3649	-2.06138e-08
2	1	0	1	1	14.9473	0.0214037	0.02116	0.00325442	1	-3.9613e-05	42	0.5148	6.88636e-08
2	1	0	1	1	15.0972	0.0513885	0.0511543	0.00402665	1	-3.90634e-05	42	0.6647	2.05981e-07
2	1	0	1	1	15.2471	0.0813734	0.0811266	0.00468401	1	-3.84068e-05	42	0.8146	3.79998e-07
2	1	0	1	1	15.3971	0.111358	0.111105	0.00519552	1	-3.76616e-05	42	0.9646	5.7725e-07
2	1	0	1	1	15.547	0.141343	0.141063	0.00562737	1	-3.6846e-05	42	1.1145	7.93814e-07
2	1	0	1	1	15.6969	0.171328	0.171087	0.0059627	1	-3.59728e-05	42	1.2644	1.02014e-06
2	1	0	1	1	15.8468	0.201313	0.201053	0.00627182	1	-3.5053e-05	42	1.4143	1.26097e-06
2	1	0	1	1	15.9968	0.231298	0.231063	0.00649838	1	-3.40934e-05	42	1.5643	1.50153e-06
2	1	0	1	1	16.1467	0.261282	0.261011	0.00674693	1	-3.30987e-05	42	1.7142	1.76102e-06
2	1	0	1	1	16.2966	0.291267	0.291031	0.00707849	1	-3.20598e-05	42	1.8641	2.06006e-06
2	1	0	1	1	16.4465	0.321252	0.320995	0.00740639	1	-3.09685e-05	42	2.014	2.37742e-06
2	1	0	1	1	16.5965	0.351237	0.350984	0.00744861	1	-2.98514e-05	42	2.164	2.61434e-06
2	1	0	1	1	16.7464	0.381222	0.380956	0.00761242	1	-2.8722e-05	42	2.3139	2.9e-06
2	1	0	1	1	16.8963	0.411207	0.410966	0.00779765	1	-2.75654e-05	42	2.4638	3.20457e-06
2	1	0	1	1	17.0462	0.441192	0.440934	0.0081284	1	-2.63708e-05	42	2.6137	3.58409e-06
2	1	0	1	1	17.1962	0.471177	0.470927	0.00854285	1	-2.51233e-05	42	2.7637	4.02305e-06
2	1	0	1	1	17.3461	0.501161	0.500907	0.00913363	1	-2.38031e-05	42	2.9136	4.5751e-06
2	1	0	1	1	17.496	0.531146	0.530909	0.0102459	1	-2.236e-05	42	3.0635	5.43966e-06
2	1	0	1	1	17.6764	0.567228	0.566981	0.0113727	1	-2.03965e-05	41	3.2439	6.4481e-06
2	1	0	1	1	17.8263	0.597213	0.596973	0.0112823	1	-1.86834e-05	41	3.3938	6.73524e-06
2	1	0	1	1	17.9763	0.627198	0.626979	0.0105562	1	-1.70409e-05	41	3.5438	6.6185e-06
2	1	0	0	1	17.996	0.631146	0.630943	0.0107131	1	-1.68335e-05	41	3.5635	6.75935e-06