File: Python/Data/RDE/240223-OCV-EIS-Fe2Fe3_5mM-HCl1M-225RPM-Ag_AgCl_BLF8-GC-RDE-1minRestVSEoc-3ppf-14p1mVAmplitude_04_PEIS_C15.mpt
EC-Lab ASCII FILE
Nb header lines : 67

Potentio Electrochemical Impedance Spectroscopy

Run on channel : 15 (SN 19485)
User :
Electrode connection : standard
Potential control : Ewe
Ewe ctrl range : min = -1.00 V, max = 1.00 V
Ewe,I filtering : 50 kHz
Safety Limits :
	Do not start on E overload
Channel : Floating
Acquisition started on : 02/23/2024 15:54:32.363
Loaded Setting File :  NONE
Saved on :
	File : 240223-OCV-EIS-Fe2Fe3_5mM-HCl1M-225RPM-Ag_AgCl_BLF8-GC-RDE-1minRestVSEoc-3ppf-14p1mVAmplitude_04_PEIS_C15.mpr
	Directory : C:\Data\mathias\RDE-RPM-variation\
	Host : 192.168.0.1
Device : VMP-300 (SN 0826)
Address : USB
EC-Lab for windows v11.52 (software)
Internet server v11.52 (firmware)
Command interpretor v11.52 (firmware)
Electrode material :
Initial state :
Electrolyte :
Comments :
Cable : special
Reference electrode : SCE Saturated Calomel Electrode (0.241 V)
Electrode surface area : 0.001 cm²
Characteristic mass : 0.001 g
Equivalent Weight : 0.000 g/eq.
Density : 0.000 g/cm3
Volume (V) : 0.001 cm³
Record EIS quality indicators
Cycle Definition : Charge/Discharge alternance
Mode                Single sine
E (V)               0.0000
vs.                 Eoc
tE (h:m:s)          0:01:0.0000
record              0
dI                  0.000
unit dI             mA
dt (s)              0.000
fi                  1.000
unit fi             MHz
ff                  100.000
unit ff             mHz
Nd                  10
Points              per decade
spacing             Logarithmic
Va (mV)             14.1
pw                  0.10
Na                  3
corr                0
E range min (V)     -1.000
E range max (V)     1.000
I Range             Auto
Bandwidth           8
nc cycles           0
goto Ns'            0
nr cycles           0
inc. cycle          1

freq/Hz	Re(Z)/Ohm	-Im(Z)/Ohm	|Z|/Ohm	Phase(Z)/deg	time/s	<Ewe>/V	<I>/mA	Cs/µF	Cp/µF	cycle number	I Range	|Ewe|/V	|I|/A	Ns	(Q-Qo)/mA.h	THD Ewe/%	NSD Ewe/%	NSR Ewe/%	|Ewe h2|/V	|Ewe h3|/V	|Ewe h4|/V	|Ewe h5|/V	|Ewe h6|/V	|Ewe h7|/V	THD I/%	NSD I/%	NSR I/%	|I h2|/A	|I h3|/A	|I h4|/A	|I h5|/A	|I h6|/A	|I h7|/A	Re(Y)/Ohm-1	Im(Y)/Ohm-1	|Y|/Ohm-1	Phase(Y)/deg	Re(C)/nF	Im(C)/nF	|C|/nF	Phase(C)/deg	Re(M)	Im(M)	|M|	Phase(M)/deg	Re(Permittivity)	Im(Permittivity)	|Permittivity|	Phase(Permittivity)/deg	Re(Resistivity)/Ohm.cm	Im(Resistivity)/Ohm.cm	|Resistivity|/Ohm.cm	Phase(Resistivity)/deg	Re(Conductivity)/mS/cm	Im(Conductivity)/mS/cm	|Conductivity|/mS/cm	Phase(Conductivity)/deg	Tan(Delta)	Loss Angle(Delta)/deg	dq/mA.h
1.00002e+06	3.51877	4.0845	5.39118	-49.2553	602.04	0.459423	-0.0109373	0.0389649	0.0223657	1	38	0.0111392	0.00206618	0	-7.24994e-06	-1	-1	-1	0	0	0	0	0	0	-1	-1	-1	0	0	0	0	0	0	0.121066	0.140531	0.185488	49.2553	22.3657	19.2679	29.5208	-40.7447	0.0000000E+000	0.0000000E+000	0.0000000E+000	40.7447	0.0000000E+000	0.0000000E+000	0.0000000E+000	-40.7447	0.0000000E+000	0.0000000E+000	0.0000000E+000	-49.2553	0.0000000E+000	0.0000000E+000	0.0000000E+000	49.2553	0.861493	40.7447	-7.24994e-06
316230	3.43616	1.35843	3.69493	-21.5705	607.641	0.459403	-0.00124024	0.370494	0.0500774	1	38	0.014548	0.00393728	0	-5.72615e-06	-1	-1	-1	0	0	0	0	0	0	-1	-1	-1	0	0	0	0	0	0	0.251687	0.0995003	0.270641	21.5705	50.0774	126.671	136.211	-68.4295	0.0000000E+000	0.0000000E+000	0.0000000E+000	68.4295	0.0000000E+000	0.0000000E+000	0.0000000E+000	-68.4295	0.0000000E+000	0.0000000E+000	0.0000000E+000	-21.5705	0.0000000E+000	0.0000000E+000	0.0000000E+000	21.5705	2.52951	68.4295	2.58253e-06
100004	3.41345	1.06333	3.57523	-17.3024	613.376	0.459424	-0.00126444	1.49671	0.132392	1	38	0.0145088	0.00405815	0	-3.85653e-05	0.487685	0.221898	9.00409	3.90014e-05	2.48369e-05	2.4427e-05	2.06659e-05	2.83668e-05	1.9199e-05	0.0681534	0.0465132	0.70225	1.85498e-06	1.2948e-06	8.43519e-07	4.94862e-07	5.00468e-07	6.87736e-07	0.267045	0.0831876	0.279702	17.3024	132.392	425	445.143	-72.6976	0.0000000E+000	0.0000000E+000	0.0000000E+000	72.6976	0.0000000E+000	0.0000000E+000	0.0000000E+000	-72.6976	0.0000000E+000	0.0000000E+000	0.0000000E+000	-17.3024	0.0000000E+000	0.0000000E+000	0.0000000E+000	17.3024	3.21016	72.6976	-5.6674e-06
31621.1	3.60716	2.17317	4.21121	-31.0673	619.112	0.459425	-0.00230341	2.31605	0.616769	1	38	0.0147202	0.00349547	0	-3.95799e-05	0.47762	0.236461	8.92451	2.15632e-05	3.40473e-05	2.52492e-05	1.98174e-05	3.23917e-05	2.24723e-05	0.0609892	0.0998693	0.804099	6.52991e-07	1.35552e-06	9.38803e-07	6.89028e-07	4.5013e-07	4.7631e-07	0.2034	0.122541	0.237461	31.0673	616.769	1023.75	1195.19	-58.9327	0.0000000E+000	0.0000000E+000	0.0000000E+000	58.9327	0.0000000E+000	0.0000000E+000	0.0000000E+000	-58.9327	0.0000000E+000	0.0000000E+000	0.0000000E+000	-31.0673	0.0000000E+000	0.0000000E+000	0.0000000E+000	31.0673	1.65986	58.9327	-4.54836e-06
10002.2	4.22036	5.91288	7.26454	-54.4823	624.846	0.459422	-0.00197577	2.69107	1.78281	1	38	0.0145755	0.00200639	0	-4.88488e-05	0.494095	0.211032	8.99961	3.18051e-05	3.70905e-05	1.61008e-05	3.02803e-05	2.48924e-05	2.7841e-05	0.198209	0.111827	1.40715	3.70221e-06	4.53176e-07	5.51759e-07	1.02748e-06	6.28783e-07	3.38599e-07	0.0799711	0.112042	0.137655	54.4823	1782.81	1272.5	2190.36	-35.5177	0.0000000E+000	0.0000000E+000	0.0000000E+000	35.5177	0.0000000E+000	0.0000000E+000	0.0000000E+000	-35.5177	0.0000000E+000	0.0000000E+000	0.0000000E+000	-54.4823	0.0000000E+000	0.0000000E+000	0.0000000E+000	54.4823	0.713758	35.5177	4.38005e-06
3163.04	6.38647	16.4478	17.6442	-68.7795	630.63	0.459291	-0.00223461	3.05919	2.6584	1	38	0.0139539	0.000790847	0	-4.66552e-05	0.518426	0.287486	9.24665	2.00293e-05	3.03666e-05	3.0122e-05	2.61522e-05	2.83889e-05	2.88443e-05	0.791785	0.158405	3.61451	5.3811e-06	2.70545e-06	7.52884e-07	7.82941e-07	3.66009e-07	7.08535e-07	0.0205143	0.0528328	0.0566758	68.7795	2658.39	1032.22	2851.76	-21.2205	0.0000000E+000	0.0000000E+000	0.0000000E+000	21.2205	0.0000000E+000	0.0000000E+000	0.0000000E+000	-21.2205	0.0000000E+000	0.0000000E+000	0.0000000E+000	-68.7795	0.0000000E+000	0.0000000E+000	0.0000000E+000	68.7795	0.388286	21.2205	-7.49763e-09
999.682	13.6826	44.5726	46.6255	-72.9349	636.414	0.459274	-0.000135148	3.57183	3.26423	1	39	0.0140345	0.000301004	0	-5.0705e-05	0.480076	0.240339	8.85142	3.1736e-05	3.45964e-05	2.81299e-05	2.71846e-05	1.51483e-05	1.2069e-05	1.18849	0.114722	4.28965	2.96705e-06	1.79358e-06	3.70821e-07	6.97438e-07	1.97065e-07	2.12645e-07	0.00629395	0.0205032	0.0214475	72.9349	3264.23	1002.03	3414.56	-17.0651	0.0000000E+000	0.0000000E+000	0.0000000E+000	17.0651	0.0000000E+000	0.0000000E+000	0.0000000E+000	-17.0651	0.0000000E+000	0.0000000E+000	0.0000000E+000	-72.9349	0.0000000E+000	0.0000000E+000	0.0000000E+000	72.9349	0.306974	17.0651	-2.3487e-07
316.316	36.6684	116.086	121.74	-72.4701	641.942	0.459311	-1.45656e-05	4.33429	3.94107	1	39	0.012998	0.000106769	0	-5.08829e-05	0.438132	0.240714	9.36751	2.35203e-05	2.51581e-05	1.862e-05	1.261e-05	1.77992e-05	2.4505e-05	0.819569	0.345179	11.531	6.18757e-07	3.2859e-07	2.26617e-07	3.05327e-07	1.89809e-07	2.46758e-07	0.00247415	0.00783277	0.00821424	72.4701	3941.07	1244.87	4133.01	-17.5299	0.0000000E+000	0.0000000E+000	0.0000000E+000	17.5299	0.0000000E+000	0.0000000E+000	0.0000000E+000	-17.5299	0.0000000E+000	0.0000000E+000	0.0000000E+000	-72.4701	0.0000000E+000	0.0000000E+000	0.0000000E+000	72.4701	0.315872	17.5298	-9.12417e-08
99.9682	107.187	291.245	310.343	-69.7948	647.703	0.45934	-8.32825e-05	5.46638	4.8143	1	40	0.0130993	4.22092e-05	0	-5.10851e-05	1.05269	0.321084	14.5959	8.31718e-05	6.43111e-05	2.91471e-05	3.84877e-05	4.59585e-05	3.98796e-05	1.07338	0.150799	5.97103	3.75141e-07	1.63416e-07	2.56235e-08	1.474e-07	6.66003e-08	4.3521e-08	0.00111291	0.00302395	0.00322224	69.7948	4814.3	1771.81	5129.99	-20.2052	0.0000000E+000	0.0000000E+000	0.0000000E+000	20.2052	0.0000000E+000	0.0000000E+000	0.0000000E+000	-20.2052	0.0000000E+000	0.0000000E+000	0.0000000E+000	-69.7948	0.0000000E+000	0.0000000E+000	0.0000000E+000	69.7948	0.368031	20.2052	1.1789e-08
31.6296	329.556	681.785	757.257	-64.2021	653.031	0.459337	-5.8286e-05	7.38039	5.98257	1	40	0.0129161	1.70564e-05	0	-5.11584e-05	0.817239	0.298419	14.5722	4.05572e-05	3.51004e-05	6.16669e-05	2.3981e-05	3.45838e-05	3.02049e-05	1.12857	0.261057	14.4967	1.43115e-07	4.4041e-08	7.35115e-08	5.36646e-08	4.59518e-08	4.21348e-08	0.000574702	0.00118894	0.00132056	64.2021	5982.57	2891.81	6644.82	-25.7979	0.0000000E+000	0.0000000E+000	0.0000000E+000	25.7979	0.0000000E+000	0.0000000E+000	0.0000000E+000	-25.7979	0.0000000E+000	0.0000000E+000	0.0000000E+000	-64.2021	0.0000000E+000	0.0000000E+000	0.0000000E+000	64.2021	0.483373	25.7979	6.35623e-09
9.99682	1026.24	1346.6	1693.08	-52.6891	658.733	0.459309	-6.45182e-05	11.8227	7.47901	1	41	0.0128716	7.60251e-06	0	-5.12311e-05	0.878384	0.51772	18.6159	4.18006e-05	3.85011e-05	3.83066e-05	6.30336e-05	3.78098e-05	3.01893e-05	0.970357	0.229669	6.12846	5.86075e-08	2.43133e-08	6.74e-09	3.41152e-08	6.53104e-09	8.76349e-09	0.00035801	0.00046977	0.00059064	52.6891	7479.01	5699.72	9403.32	-37.3109	0.0000000E+000	0.0000000E+000	0.0000000E+000	37.3109	0.0000000E+000	0.0000000E+000	0.0000000E+000	-37.3109	0.0000000E+000	0.0000000E+000	0.0000000E+000	-52.6891	0.0000000E+000	0.0000000E+000	0.0000000E+000	52.6891	0.762096	37.3109	4.03226e-08
3.16296	2529.51	1717.39	3057.43	-34.1743	667.174	0.459327	-6.7268e-05	29.2993	9.24452	1	41	0.0128857	4.21454e-06	0	-5.14455e-05	0.454483	0.218166	8.47661	2.98387e-05	1.35758e-05	2.23163e-05	2.87842e-05	2.25581e-05	1.04463e-05	0.922613	0.129233	5.30619	3.41003e-08	1.52398e-08	3.76884e-09	7.72148e-09	4.70791e-09	2.3479e-09	0.000270598	0.000183721	0.000327073	34.1743	9244.52	13616	16457.8	-55.8257	0.0000000E+000	0.0000000E+000	0.0000000E+000	55.8257	0.0000000E+000	0.0000000E+000	0.0000000E+000	-55.8257	0.0000000E+000	0.0000000E+000	0.0000000E+000	-34.1743	0.0000000E+000	0.0000000E+000	0.0000000E+000	34.1743	1.47288	55.8257	-1.3371e-07
1.00006	3833.79	1217	4022.31	-17.6116	690.596	0.459318	-7.45015e-05	130.768	11.9711	1	42	0.0128649	3.19838e-06	0	-5.1695e-05	0.273616	0.190725	4.58429	1.62104e-05	1.76471e-05	1.2454e-05	9.53125e-06	1.52353e-05	8.73874e-06	0.779455	0.0453354	1.33138	2.25243e-08	9.98229e-09	7.12527e-10	3.59156e-09	6.87076e-10	5.35908e-10	0.00023696	7.5221e-05	0.000248613	17.6116	11971.1	37711.1	39565.6	-72.3884	0.0000000E+000	0.0000000E+000	0.0000000E+000	72.3884	0.0000000E+000	0.0000000E+000	0.0000000E+000	-72.3884	0.0000000E+000	0.0000000E+000	0.0000000E+000	-17.6116	0.0000000E+000	0.0000000E+000	0.0000000E+000	17.6116	3.15019	72.3884	1.36874e-07
0.316193	4457.18	706.847	4512.88	-9.01127	756.391	0.459332	-7.32835e-05	712.103	17.4697	1	42	0.0128642	2.85054e-06	0	-5.35917e-05	0.142534	0.0737547	2.50049	5.89752e-06	9.40289e-06	6.06239e-06	8.51848e-06	4.98566e-06	6.51248e-06	0.782992	0.0346188	1.44399	2.04851e-08	8.44858e-09	3.92659e-10	2.62139e-09	1.58394e-10	1.87557e-10	0.000218853	3.47071e-05	0.000221588	9.01127	17469.7	110159	111536	-80.9887	0.0000000E+000	0.0000000E+000	0.0000000E+000	80.9887	0.0000000E+000	0.0000000E+000	0.0000000E+000	-80.9887	0.0000000E+000	0.0000000E+000	0.0000000E+000	-9.01127	0.0000000E+000	0.0000000E+000	0.0000000E+000	9.01127	6.30572	80.9887	-8.63488e-07
0.0999518	4803.2	361.507	4816.78	-4.30418	960.972	0.459346	-6.73686e-05	4404.67	24.8103	1	42	0.0128631	2.67048e-06	0	-5.70771e-05	0.121817	0.0569473	1.534	3.78269e-06	8.87101e-06	4.89657e-06	9.14765e-06	3.09645e-06	4.52621e-06	0.786917	0.0310235	1.49647	1.95039e-08	7.48956e-09	2.44656e-10	2.2176e-09	1.46452e-10	1.93419e-10	0.000207022	1.55813e-05	0.000207607	4.30418	24810.3	329645	330577	-85.6958	0.0000000E+000	0.0000000E+000	0.0000000E+000	85.6958	0.0000000E+000	0.0000000E+000	0.0000000E+000	-85.6958	0.0000000E+000	0.0000000E+000	0.0000000E+000	-4.30418	0.0000000E+000	0.0000000E+000	0.0000000E+000	4.30418	13.2866	85.6958	-1.78691e-06