File: Python/Data/RDE/240223-OCV-EIS-Fe2Fe3_5mM-HCl1M-2000RPM-Ag_AgCl_BLF8-GC-RDE-1minRestVSEoc-3ppf-14p1mVAmplitude_05_OCV_C15.mpt
EC-Lab ASCII FILE
Nb header lines : 47

Open Circuit Voltage

Run on channel : 15 (SN 19485)
User :
Electrode connection : standard
Potential control : Ewe
Ewe ctrl range : min = -1.00 V, max = 1.00 V
Ewe,I filtering : 50 kHz
Safety Limits :
	Do not start on E overload
Channel : Floating
Acquisition started on : 02/23/2024 14:14:06.635
Loaded Setting File :  NONE
Saved on :
	File : 240223-OCV-EIS-Fe2Fe3_5mM-HCl1M-2000RPM-Ag_AgCl_BLF8-GC-RDE-1minRestVSEoc-3ppf-14p1mVAmplitude_05_OCV_C15.mpr
	Directory : C:\Data\mathias\RDE-RPM-variation\
	Host : 192.168.0.1
Device : VMP-300 (SN 0826)
Address : USB
EC-Lab for windows v11.52 (software)
Internet server v11.52 (firmware)
Command interpretor v11.52 (firmware)
Electrode material :
Initial state :
Electrolyte :
Comments :
Cable : special
Reference electrode : SCE Saturated Calomel Electrode (0.241 V)
Electrode surface area : 0.001 cm²
Characteristic mass : 0.001 g
Equivalent Weight : 0.000 g/eq.
Density : 0.000 g/cm3
Volume (V) : 0.001 cm³
Record EIS quality indicators
Cycle Definition : Charge/Discharge alternance
tR (h:m:s)          0:01:0.0000
dER/dt (mV/h)       1.0
record              <Ewe>
dER (mV)            0.00
dtR (s)             0.5000
E range min (V)     -1.000
E range max (V)     1.000

mode	error	time/s	<Ewe/V>
3	0	965.558	0.461047
3	0	966.058	0.46015
3	0	966.558	0.459975
3	0	967.058	0.459915
3	0	967.558	0.459886
3	0	968.058	0.459873
3	0	968.558	0.459863
3	0	969.058	0.459853
3	0	969.558	0.459851
3	0	970.058	0.459848
3	0	970.558	0.459845
3	0	971.058	0.459841
3	0	971.558	0.459839
3	0	972.058	0.459838
3	0	972.558	0.459835
3	0	973.058	0.459834
3	0	973.558	0.459832
3	0	974.058	0.459833
3	0	974.558	0.45983
3	0	975.058	0.459828
3	0	975.558	0.459828
3	0	976.058	0.459827
3	0	976.558	0.459828
3	0	977.058	0.459831
3	0	977.558	0.459829
3	0	978.058	0.459829
3	0	978.558	0.459829
3	0	979.058	0.459828
3	0	979.558	0.459829
3	0	980.058	0.459827
3	0	980.558	0.459828
3	0	981.058	0.459827
3	0	981.558	0.459829
3	0	982.058	0.459826
3	0	982.558	0.459825
3	0	983.058	0.459826
3	0	983.558	0.459823
3	0	984.058	0.45982
3	0	984.558	0.45982
3	0	985.058	0.459823
3	0	985.558	0.459822
3	0	986.058	0.45982
3	0	986.558	0.459822
3	0	987.058	0.45982
3	0	987.558	0.459819
3	0	988.058	0.459818
3	0	988.558	0.459819
3	0	989.058	0.45982
3	0	989.558	0.459821
3	0	990.058	0.459821
3	0	990.558	0.459821
3	0	991.058	0.459821
3	0	991.558	0.459821
3	0	992.058	0.459821
3	0	992.558	0.459821
3	0	993.058	0.459823
3	0	993.558	0.459822
3	0	994.058	0.459822
3	0	994.558	0.459823
3	0	995.058	0.459827
3	0	995.558	0.459829
3	0	996.058	0.459828
3	0	996.558	0.459829
3	0	997.058	0.459827
3	0	997.558	0.459826
3	0	998.058	0.459826
3	0	998.558	0.459826
3	0	999.058	0.459827
3	0	999.558	0.45983
3	0	1000.06	0.45983
3	0	1000.56	0.459829
3	0	1001.06	0.459828
3	0	1001.56	0.45983
3	0	1002.06	0.459828
3	0	1002.56	0.459828
3	0	1003.06	0.459829
3	0	1003.56	0.459828
3	0	1004.06	0.459827
3	0	1004.56	0.459827
3	0	1005.06	0.459825
3	0	1005.56	0.459823
3	0	1006.06	0.459821
3	0	1006.56	0.459819
3	0	1007.06	0.459821
3	0	1007.56	0.459819
3	0	1008.06	0.459821
3	0	1008.56	0.45982
3	0	1009.06	0.45982
3	0	1009.56	0.45982
3	0	1010.06	0.459821
3	0	1010.56	0.459821
3	0	1011.06	0.459819
3	0	1011.56	0.45982
3	0	1012.06	0.459819
3	0	1012.56	0.459819
3	0	1013.06	0.459818
3	0	1013.56	0.45982
3	0	1014.06	0.459821
3	0	1014.56	0.459822
3	0	1015.06	0.45982
3	0	1015.56	0.459818
3	0	1016.06	0.459818
3	0	1016.56	0.459818
3	0	1017.06	0.459817
3	0	1017.56	0.459816
3	0	1018.06	0.459816
3	0	1018.56	0.459815
3	0	1019.06	0.459814
3	0	1019.56	0.459811
3	0	1020.06	0.459811
3	0	1020.56	0.459813
3	0	1021.06	0.459811
3	0	1021.56	0.459812
3	0	1022.06	0.459812
3	0	1022.56	0.45981
3	0	1023.06	0.459812
3	0	1023.56	0.459809
3	0	1024.06	0.459812
3	0	1024.56	0.459809
3	0	1025.06	0.459811
3	0	1025.22	0.459811