File: Python/Data/RDE/240223-OCV-EIS-Fe2Fe3_5mM-HCl1M-0RPM-Ag_AgCl_BLF8-GC-RDE-5minVsOCV-5ppf-3scans-14p1mVAmplitude-1MHz_100mHz_01_OCV_C15.mpt
EC-Lab ASCII FILE
Nb header lines : 47

Open Circuit Voltage

Run on channel : 15 (SN 19485)
User :
Electrode connection : standard
Potential control : Ewe
Ewe ctrl range : min = -1.00 V, max = 1.00 V
Ewe,I filtering : 50 kHz
Safety Limits :
	Do not start on E overload
Channel : Floating
Acquisition started on : 02/23/2024 11:36:28.401
Loaded Setting File :  NONE
Saved on :
	File : 240223-OCV-EIS-Fe2Fe3_5mM-HCl1M-0RPM-Ag_AgCl_BLF8-GC-RDE-5minVsOCV-5ppf-3scans-14p1mVAmplitude-1MHz_100mHz_01_OCV_C15.mpr
	Directory : C:\Data\mathias\RDE-RPM-variation\
	Host : 192.168.0.1
Device : VMP-300 (SN 0826)
Address : USB
EC-Lab for windows v11.52 (software)
Internet server v11.52 (firmware)
Command interpretor v11.52 (firmware)
Electrode material :
Initial state :
Electrolyte :
Comments :
Cable : special
Reference electrode : SCE Saturated Calomel Electrode (0.241 V)
Electrode surface area : 0.001 cm²
Characteristic mass : 0.001 g
Equivalent Weight : 0.000 g/eq.
Density : 0.000 g/cm3
Volume (V) : 0.001 cm³
Record EIS quality indicators
Cycle Definition : Charge/Discharge alternance
tR (h:m:s)          0:01:0.0000
dER/dt (mV/h)       1.0
record              <Ewe>
dER (mV)            0.00
dtR (s)             0.5000
E range min (V)     -1.000
E range max (V)     1.000

mode	error	time/s	<Ewe/V>
3	1	0.5	0.462607
3	0	1	0.462606
3	0	1.5	0.462608
3	0	2	0.462607
3	0	2.5	0.462604
3	0	3	0.462603
3	0	3.5	0.462604
3	0	4	0.462604
3	0	4.5	0.462604
3	0	5	0.462604
3	0	5.5	0.462601
3	0	6	0.462604
3	0	6.5	0.462604
3	0	7	0.462603
3	0	7.5	0.462602
3	0	8	0.462602
3	0	8.5	0.462602
3	0	9	0.462602
3	0	9.5	0.4626
3	0	10	0.462598
3	0	10.5	0.462585
3	0	11	0.462588
3	0	11.5	0.462587
3	0	12	0.462585
3	0	12.5	0.462585
3	0	13	0.462586
3	0	13.5	0.462589
3	0	14	0.462588
3	0	14.5	0.462588
3	0	15	0.462588
3	0	15.5	0.462588
3	0	16	0.462586
3	0	16.5	0.462588
3	0	17	0.462589
3	0	17.5	0.46259
3	0	18	0.462587
3	0	18.5	0.462586
3	0	19	0.462581
3	0	19.5	0.462582
3	0	20	0.462584
3	0	20.5	0.462583
3	0	21	0.462584
3	0	21.5	0.462583
3	0	22	0.462583
3	0	22.5	0.462584
3	0	23	0.462581
3	0	23.5	0.462583
3	0	24	0.46258
3	0	24.5	0.462578
3	0	25	0.462583
3	0	25.5	0.462581
3	0	26	0.462578
3	0	26.5	0.462582
3	0	27	0.462585
3	0	27.5	0.462584
3	0	28	0.462579
3	0	28.5	0.462578
3	0	29	0.462576
3	0	29.5	0.462572
3	0	30	0.462572
3	0	30.5	0.462571
3	0	31	0.462571
3	0	31.5	0.462569
3	0	32	0.462569
3	0	32.5	0.46257
3	0	33	0.462568
3	0	33.5	0.462569
3	0	34	0.462569
3	0	34.5	0.462569
3	0	35	0.46257
3	0	35.5	0.462568
3	0	36	0.462568
3	0	36.5	0.462567
3	0	37	0.462565
3	0	37.5	0.46257
3	0	38	0.462575
3	0	38.5	0.462572
3	0	39	0.46257
3	0	39.5	0.462568
3	0	40	0.462563
3	0	40.5	0.462564
3	0	41	0.462564
3	0	41.5	0.462564
3	0	42	0.462563
3	0	42.5	0.462562
3	0	43	0.462561
3	0	43.5	0.462564
3	0	44	0.462564
3	0	44.5	0.462561
3	0	45	0.462564
3	0	45.5	0.462567
3	0	46	0.462565
3	0	46.5	0.462562
3	0	47	0.462561
3	0	47.5	0.462559
3	0	48	0.462559
3	0	48.5	0.462558
3	0	49	0.462563
3	0	49.5	0.462561
3	0	50	0.462559
3	0	50.5	0.462558
3	0	51	0.462557
3	0	51.5	0.46256
3	0	52	0.462561
3	0	52.5	0.462558
3	0	53	0.462558
3	0	53.5	0.46256
3	0	54	0.462558
3	0	54.5	0.462556
3	0	55	0.462555
3	0	55.5	0.462552
3	0	56	0.462552
3	0	56.5	0.462551
3	0	57	0.462549
3	0	57.5	0.462549
3	0	58	0.46255
3	0	58.5	0.462548
3	0	59	0.46255
3	0	59.5	0.46255
3	0	59.9998	0.462551