File: Python/Data/RDE/240219-CV-EIS-Fe2Fe3_5mM-HCl1M-1225RPM-Ag_AgCl_BLF8-GC-RDE_01_CV_C15.mpt
EC-Lab ASCII FILE
Nb header lines : 60

Cyclic Voltammetry

Run on channel : 15 (SN 19485)
User :
Electrode connection : standard
Potential control : Ewe
Ewe ctrl range : min = -1.00 V, max = 1.00 V
Ewe,I filtering : <None>
Safety Limits :
	Do not start on E overload
Channel : Floating
Acquisition started on : 02/19/2024 16:52:12.543
Loaded Setting File :  C:\Data\mathias\RDE-RPM-variation\240219-CV-EIS-Fe2Fe3_5mM-HCl1M-RPMtest-Ag_AgCl_BLF8-GC-RDE.mps
Saved on :
	File : 240219-CV-EIS-Fe2Fe3_5mM-HCl1M-1225RPM-Ag_AgCl_BLF8-GC-RDE_01_CV_C15.mpr
	Directory : C:\Data\mathias\RDE-RPM-variation\
	Host : 192.168.0.1
Device : VMP-300 (SN 0826)
Address : USB
EC-Lab for windows v11.52 (software)
Internet server v11.52 (firmware)
Command interpretor v11.52 (firmware)
Electrode material :
Initial state :
Electrolyte :
Comments :
Cable : special
Electrode surface area : 0.001 cm²
Characteristic mass : 0.001 g
Equivalent Weight : 0.000 g/eq.
Density : 0.000 g/cm3
Volume (V) : 0.001 cm³
Record EIS quality indicators
Cycle Definition : Charge/Discharge alternance
Ei (V)              0.000
vs.                 Eoc
dE/dt               20.000
dE/dt unit          mV/s
E1 (V)              1.000
vs.                 Ref
Step percent        50
N                   10
E range min (V)     -1.000
E range max (V)     1.000
I Range             Auto
I Range min         Unset
I Range max         Unset
I Range init        Unset
Bandwidth           8
E2 (V)              0.000
vs.                 Ref
nc cycles           2
Reverse Scan        1
Ef (V)              0.000
vs.                 Eoc

mode	ox/red	error	control changes	counter inc.	time/s	control/V	Ewe/V	<I>/mA	cycle number	(Q-Qo)/C	I Range	step time/s	P/W
2	1	0	0	0	0.000000000000000E+000	0.46309	0.462802	0.000378472	1	0.0000000E+000	43	0.000000000000000E+000	1.75158e-07
2	1	0	1	0	2.4676	0.512441	0.512208	0.0106928	1	1.32136e-05	42	2.4538	5.47694e-06
2	1	0	1	0	4.9465	0.562017	0.561632	0.0271597	1	5.82407e-05	41	4.9327	1.52538e-05
2	1	0	1	0	7.3953	0.610994	0.61087	0.0569961	1	0.000158161	41	7.3815	3.48172e-05
2	1	0	1	0	9.8441	0.659971	0.659603	0.104017	1	0.000352404	41	9.8303	6.86098e-05
2	1	0	1	0	12.323	0.709547	0.709232	0.163973	1	0.00068321	40	12.3092	0.000116295
2	1	0	1	0	14.7718	0.758524	0.758413	0.228212	1	0.00116392	40	14.758	0.000173079
2	1	0	1	0	17.2206	0.807501	0.806989	0.291489	1	0.00180416	40	17.2068	0.000235228
2	1	0	1	0	19.6695	0.856477	0.856266	0.342617	1	0.00258655	40	19.6557	0.000293371
2	1	0	1	0	22.1183	0.905454	0.905275	0.381344	1	0.00347801	40	22.1045	0.000345221
2	1	0	1	0	24.5671	0.954431	0.954124	0.408833	1	0.00444683	40	24.5533	0.000390077
2	1	0	1	0	26.9842	0.99721	0.997086	0.422465	1	0.00545644	40	26.9704	0.000421234
2	1	0	1	0	29.433	0.948234	0.947767	0.401821	1	0.0064615	40	29.4192	0.000380832
2	1	0	1	0	31.8818	0.899257	0.898809	0.370288	1	0.00740931	40	31.868	0.000332818
2	1	0	1	0	34.3307	0.85028	0.849982	0.328264	1	0.00826798	40	34.3169	0.000279018
2	1	0	1	0	36.7795	0.801304	0.801059	0.272099	1	0.0090041	40	36.7657	0.000217968
2	1	0	1	0	39.2284	0.752326	0.751979	0.205868	1	0.00958997	40	39.2146	0.000154808
2	1	0	1	0	41.6772	0.70335	0.703063	0.143564	1	0.0100174	40	41.6634	0.000100934
2	1	0	1	0	44.126	0.654373	0.653998	0.0894035	1	0.0103002	40	44.1122	5.84697e-05
2	1	0	1	0	46.5749	0.605397	0.605256	0.0477443	1	0.0104645	40	46.5611	2.88975e-05
2	1	0	1	0	49.0537	0.55582	0.555435	0.0220362	1	0.0105476	41	49.0399	1.22397e-05
2	1	0	1	0	51.5025	0.506844	0.506656	0.00781751	1	0.0105823	41	51.4887	3.96079e-06
2	0	0	1	0	54.0413	0.456068	0.455899	-0.00215146	1	0.010589	42	0.5547	-9.8085e-07
2	0	0	1	0	56.5201	0.406491	0.406165	-0.0129436	1	0.0105711	41	3.0335	-5.25725e-06
2	0	0	1	0	58.969	0.357515	0.357286	-0.0316325	1	0.0105189	41	5.4824	-1.13018e-05
2	0	0	1	0	61.4178	0.308538	0.308373	-0.0664725	1	0.0104028	41	7.9312	-2.04983e-05
2	0	0	1	0	63.8966	0.258962	0.25855	-0.123919	1	0.010171	40	10.41	-3.20392e-05
2	0	0	1	0	66.3455	0.209985	0.209708	-0.196917	1	0.00977922	40	12.8589	-4.1295e-05
2	0	0	1	0	68.7943	0.161008	0.160833	-0.268785	1	0.00920722	40	15.3077	-4.32295e-05
2	0	0	1	0	71.2431	0.112031	0.111802	-0.321673	1	0.00847921	40	17.7565	-3.59637e-05
2	0	0	1	0	73.692	0.0630547	0.0629716	-0.361187	1	0.0076387	40	20.2054	-2.27445e-05
2	0	0	1	0	76.1408	0.014078	0.0138114	-0.380798	1	0.00672593	40	22.6542	-5.25936e-06
2	0	0	1	1	78.5578	0.0342684	0.0339173	-0.373505	1	0.00580257	40	25.0712	-1.26683e-05
2	0	0	1	1	81.0066	0.0832442	0.0830525	-0.341146	1	0.00492519	40	27.52	-2.8333e-05
2	0	0	1	1	83.4555	0.132222	0.13188	-0.297548	1	0.00413892	40	29.9689	-3.92406e-05
2	0	0	1	1	85.9043	0.181198	0.180663	-0.235915	1	0.00348266	40	32.4177	-4.2621e-05
2	0	0	1	1	88.3532	0.230175	0.229744	-0.16378	1	0.00299308	40	34.8666	-3.76275e-05
2	0	0	1	1	90.802	0.279152	0.278938	-0.0969251	1	0.0026772	40	37.3154	-2.70361e-05
2	0	0	1	1	93.2508	0.328129	0.327818	-0.0495811	1	0.00250265	40	39.7642	-1.62536e-05
2	0	0	1	1	95.7296	0.377704	0.377147	-0.0214336	1	0.0024183	41	42.243	-8.08362e-06
2	0	0	1	1	98.1785	0.426682	0.426451	-0.00644274	1	0.00238605	41	44.6919	-2.74751e-06
2	1	0	1	1	100.687	0.476858	0.476779	0.00391325	2	0.00238328	42	0.9745	1.86576e-06
2	1	0	1	1	103.166	0.526434	0.526023	0.0156734	2	0.00240664	41	3.4533	8.24457e-06
2	1	0	1	1	105.615	0.575412	0.574975	0.0354924	2	0.00246708	41	5.9022	2.04072e-05
2	1	0	1	1	108.064	0.624388	0.624092	0.0703956	2	0.00259338	41	8.351	4.39333e-05
2	1	0	1	1	110.543	0.673964	0.673691	0.122497	2	0.00283016	40	10.8298	8.25248e-05
2	1	0	1	1	112.991	0.722941	0.722682	0.183438	2	0.00320442	40	13.2786	0.000132567
2	1	0	1	1	115.44	0.771918	0.771655	0.248661	2	0.00373456	40	15.7275	0.00019188
2	1	0	1	1	117.889	0.820894	0.820477	0.308077	2	0.00442052	40	18.1763	0.00025277
2	1	0	1	1	120.338	0.869872	0.869618	0.357235	2	0.00523923	40	20.6252	0.000310658
2	1	0	1	1	122.787	0.918848	0.91833	0.391013	2	0.00615646	40	23.074	0.000359079
2	1	0	1	1	125.236	0.967824	0.967603	0.414868	2	0.00714286	40	25.5228	0.000401427
2	1	0	1	1	127.658	0.983717	0.983446	0.418947	2	0.00816123	40	27.9449	0.000412012
2	1	0	1	1	130.106	0.93474	0.934355	0.394282	2	0.0091523	40	30.3937	0.000368399
2	1	0	1	1	132.555	0.885763	0.885502	0.360955	2	0.0100761	40	32.8425	0.000319627
2	1	0	1	1	135.004	0.836787	0.836456	0.314724	2	0.010906	40	35.2914	0.000263253
2	1	0	1	1	137.453	0.78781	0.787509	0.254072	2	0.0116047	40	37.7402	0.000200084
2	1	0	1	1	139.902	0.738833	0.738432	0.188762	2	0.012147	40	40.189	0.000139388
2	1	0	1	1	142.351	0.689857	0.689511	0.128007	2	0.0125323	40	42.6379	8.82624e-05
2	1	0	1	1	144.799	0.64088	0.640496	0.0766382	2	0.01278	40	45.0867	4.90865e-05
2	1	0	1	1	147.278	0.591303	0.591155	0.0390229	2	0.0129193	41	47.5655	2.30686e-05
2	1	0	1	1	149.727	0.542327	0.541932	0.0174175	2	0.0129854	41	50.0144	9.43911e-06
2	1	0	1	1	152.176	0.49335	0.493066	0.00501612	2	0.0130114	41	52.4632	2.47328e-06
2	0	0	1	1	154.715	0.442574	0.442249	-0.00476241	2	0.0130115	42	1.2144	-2.10617e-06
2	0	0	1	1	157.194	0.392998	0.392464	-0.0170247	2	0.0129857	41	3.6932	-6.68157e-06
2	0	0	1	1	159.642	0.344022	0.343841	-0.039453	2	0.0129193	41	6.142	-1.35656e-05
2	0	0	1	1	162.091	0.295044	0.294711	-0.0799936	2	0.0127772	41	8.5909	-2.3575e-05
2	0	0	1	1	164.57	0.245468	0.245249	-0.143515	2	0.012504	40	11.0697	-3.51969e-05
2	0	0	1	1	167.019	0.196491	0.196216	-0.217698	2	0.0120617	40	13.5185	-4.27158e-05
2	0	0	1	1	169.468	0.147515	0.14704	-0.285872	2	0.0114423	40	15.9674	-4.20346e-05
2	0	0	1	1	171.917	0.0985378	0.0981637	-0.334696	2	0.0106783	40	18.4162	-3.2855e-05
2	0	0	1	1	174.365	0.049562	0.0493578	-0.369279	2	0.00981494	40	20.865	-1.82268e-05
2	0	0	1	1	176.814	0.000584391	0.000278217	-0.389048	2	0.00888505	40	23.3139	-1.0824e-07
2	0	0	1	0	179.231	0.047762	0.0474615	-0.366209	2	0.00797402	40	25.7309	-1.73808e-05
2	0	0	1	0	181.68	0.0967387	0.0964524	-0.332851	2	0.00711678	40	28.1797	-3.21043e-05
2	0	0	1	0	184.129	0.145715	0.145481	-0.281481	2	0.00636172	40	30.6286	-4.095e-05
2	0	0	1	0	186.578	0.194692	0.194498	-0.216965	2	0.00574931	40	33.0774	-4.21993e-05
2	0	0	1	0	189.027	0.243669	0.243483	-0.143829	2	0.00530836	40	35.5262	-3.50199e-05
2	0	0	1	0	191.475	0.292645	0.292302	-0.0818242	2	0.0050358	40	37.9751	-2.39173e-05
2	0	0	1	0	193.954	0.342222	0.341762	-0.0398079	2	0.00488971	41	40.4539	-1.36048e-05
2	0	0	1	0	196.403	0.391199	0.390911	-0.0164456	2	0.00482392	41	42.9027	-6.42878e-06
2	0	0	1	0	198.882	0.440776	0.440411	-0.00327768	2	0.00480094	42	45.3816	-1.44353e-06
2	1	0	1	0	201.356	0.490251	0.489712	0.00669745	3	0.00480511	42	1.6442	3.27982e-06
2	1	0	1	0	203.835	0.539828	0.539731	0.0199524	3	0.00483693	41	4.123	1.07689e-05
2	1	0	1	0	206.283	0.588805	0.588558	0.0432891	3	0.00491178	41	6.5718	2.54781e-05
2	1	0	1	0	208.732	0.637781	0.637254	0.0830751	3	0.00506305	41	9.0207	5.294e-05
2	1	0	1	0	211.211	0.687358	0.686987	0.138559	3	0.00533544	40	11.4995	9.51884e-05
2	1	0	1	0	213.66	0.736335	0.736083	0.20114	3	0.00575003	40	13.9483	0.000148056
2	1	0	1	0	216.109	0.785311	0.785291	0.265644	3	0.00632236	40	16.3972	0.000208608
2	1	0	1	0	218.558	0.834288	0.833991	0.32288	3	0.00704698	40	18.846	0.000269279
2	1	0	1	0	221.006	0.883265	0.882783	0.366713	3	0.00789434	40	21.2948	0.000323728
2	1	0	1	0	223.455	0.932241	0.932143	0.393931	3	0.00883156	40	23.7437	0.0003672
2	1	0	1	0	225.904	0.981218	0.980954	0.41933	3	0.00983084	40	26.1925	0.000411343
2	1	0	1	0	228.331	0.970223	0.969852	0.412101	3	0.010848	40	28.6195	0.000399677
2	1	0	1	0	230.78	0.921247	0.920921	0.388675	3	0.0118253	40	31.0684	0.000357939
2	1	0	1	0	233.229	0.87227	0.871983	0.348551	3	0.0127254	40	33.5172	0.000303931
2	1	0	1	0	235.678	0.823293	0.822951	0.29734	3	0.0135187	40	35.966	0.000244696
2	1	0	1	0	238.126	0.774316	0.774037	0.234906	3	0.0141733	40	38.4149	0.000181826
2	1	0	1	0	240.575	0.72534	0.725029	0.170712	3	0.0146694	40	40.8637	0.000123771
2	1	0	1	0	243.024	0.676362	0.676156	0.111832	3	0.015013	40	43.3126	7.56156e-05
2	1	0	1	0	245.473	0.627386	0.62702	0.0641504	3	0.0152257	40	45.7614	4.02236e-05
2	1	0	1	0	247.952	0.57781	0.577432	0.0315517	3	0.0153406	41	48.2402	1.8219e-05
2	1	0	1	0	250.401	0.528833	0.528482	0.0133023	3	0.015393	41	50.689	7.03003e-06
2	1	0	1	0	252.879	0.479257	0.478703	0.00214363	3	0.0154111	42	53.1679	1.02616e-06
2	0	0	1	0	255.388	0.429081	0.428633	-0.00755058	3	0.0154046	42	1.9041	-3.23643e-06
2	0	0	1	0	257.867	0.379504	0.379197	-0.0217997	3	0.0153699	41	4.3829	-8.26641e-06
2	0	0	1	0	260.316	0.330527	0.330472	-0.0483368	3	0.0152872	41	6.8317	-1.59739e-05
2	0	0	1	0	262.765	0.281551	0.28129	-0.094976	3	0.0151161	41	9.2806	-2.67158e-05
2	0	0	1	0	265.244	0.231974	0.231942	-0.163025	3	0.0147994	40	11.7594	-3.78124e-05
2	0	0	1	0	267.692	0.182998	0.182517	-0.238179	3	0.0143082	40	14.2082	-4.34717e-05
2	0	0	1	0	270.141	0.134021	0.133874	-0.298372	3	0.0136457	40	16.6571	-3.99442e-05
2	0	0	1	0	272.59	0.0850442	0.084492	-0.346424	3	0.0128494	40	19.1059	-2.92701e-05
2	0	0	1	0	275.039	0.0360675	0.0356955	-0.374091	3	0.0119627	40	21.5547	-1.33534e-05
2	0	0	1	1	277.456	0.0122788	0.0120218	-0.382365	3	0.0110376	40	23.9717	-4.5967e-06
2	0	0	1	1	279.905	0.0612555	0.0613252	-0.358125	3	0.0101287	40	26.4206	-2.1962e-05
2	0	0	1	1	282.354	0.110232	0.11016	-0.320137	3	0.00929454	40	28.8694	-3.52664e-05
2	0	0	1	1	284.802	0.159209	0.158975	-0.26607	3	0.00857337	40	31.3182	-4.22986e-05
2	0	0	1	1	287.251	0.208186	0.2078	-0.195613	3	0.00800665	40	33.7671	-4.06483e-05
2	0	0	1	1	289.7	0.257162	0.256605	-0.124769	3	0.00761571	40	36.2159	-3.20163e-05
2	0	0	1	1	292.149	0.30614	0.305747	-0.0679858	3	0.00738423	40	38.6648	-2.07864e-05
2	0	0	1	1	294.628	0.355716	0.355354	-0.0317945	3	0.00726494	41	41.1436	-1.12983e-05
2	0	0	1	1	297.077	0.404692	0.403939	-0.0120837	3	0.00721385	41	43.5924	-4.88108e-06
2	0	0	1	1	299.555	0.454269	0.454058	-0.000539842	3	0.00719922	42	46.0712	-2.45119e-07
2	1	0	0	1	299.938	0.46194	0.461004	0.000985166	3	0.0071993	43	0.2276	4.54166e-07