File: Python/Data/RDE/240223-OCV-EIS-Fe2Fe3_5mM-HCl1M-2000RPM-Ag_AgCl_BLF8-GC-RDE-AllPreviousVariations_04_PEIS_C15.mpt
EC-Lab ASCII FILE
Nb header lines : 67

Potentio Electrochemical Impedance Spectroscopy

Run on channel : 15 (SN 19485)
User :
Electrode connection : standard
Potential control : Ewe
Ewe ctrl range : min = -1.00 V, max = 1.00 V
Ewe,I filtering : 50 kHz
Safety Limits :
	Do not start on E overload
Channel : Floating
Acquisition started on : 02/23/2024 12:36:41.987
Loaded Setting File :  C:\Data\mathias\RDE-RPM-variation\240222-CV-EIS-Fe2Fe3_5mM-HCl1M-0RPM-Ag_AgCl_BLF8-GC-RDE-DefaultSettings.mps
Saved on :
	File : 240223-OCV-EIS-Fe2Fe3_5mM-HCl1M-2000RPM-Ag_AgCl_BLF8-GC-RDE-AllPreviousVariations_04_PEIS_C15.mpr
	Directory : C:\Data\mathias\RDE-RPM-variation\
	Host : 192.168.0.1
Device : VMP-300 (SN 0826)
Address : USB
EC-Lab for windows v11.52 (software)
Internet server v11.52 (firmware)
Command interpretor v11.52 (firmware)
Electrode material :
Initial state :
Electrolyte :
Comments :
Cable : special
Reference electrode : SCE Saturated Calomel Electrode (0.241 V)
Electrode surface area : 0.001 cm²
Characteristic mass : 0.001 g
Equivalent Weight : 0.000 g/eq.
Density : 0.000 g/cm3
Volume (V) : 0.001 cm³
Record EIS quality indicators
Cycle Definition : Charge/Discharge alternance
Mode                Single sine
E (V)               0.0000
vs.                 Ref
tE (h:m:s)          0:01:0.0000
record              0
dI                  0.000
unit dI             mA
dt (s)              0.000
fi                  400.000
unit fi             kHz
ff                  100.000
unit ff             mHz
Nd                  10
Points              per decade
spacing             Logarithmic
Va (mV)             7.0
pw                  0.10
Na                  3
corr                0
E range min (V)     -1.000
E range max (V)     1.000
I Range             Auto
Bandwidth           8
nc cycles           2
goto Ns'            0
nr cycles           0
inc. cycle          1

freq/Hz	Re(Z)/Ohm	-Im(Z)/Ohm	|Z|/Ohm	Phase(Z)/deg	time/s	<Ewe>/V	<I>/mA	Cs/µF	Cp/µF	cycle number	I Range	|Ewe|/V	|I|/A	Ns	(Q-Qo)/mA.h	THD Ewe/%	NSD Ewe/%	NSR Ewe/%	|Ewe h2|/V	|Ewe h3|/V	|Ewe h4|/V	|Ewe h5|/V	|Ewe h6|/V	|Ewe h7|/V	THD I/%	NSD I/%	NSR I/%	|I h2|/A	|I h3|/A	|I h4|/A	|I h5|/A	|I h6|/A	|I h7|/A	Re(Y)/Ohm-1	Im(Y)/Ohm-1	|Y|/Ohm-1	Phase(Y)/deg	Re(C)/nF	Im(C)/nF	|C|/nF	Phase(C)/deg	Re(M)	Im(M)	|M|	Phase(M)/deg	Re(Permittivity)	Im(Permittivity)	|Permittivity|	Phase(Permittivity)/deg	Re(Resistivity)/Ohm.cm	Im(Resistivity)/Ohm.cm	|Resistivity|/Ohm.cm	Phase(Resistivity)/deg	Re(Conductivity)/mS/cm	Im(Conductivity)/mS/cm	|Conductivity|/mS/cm	Phase(Conductivity)/deg	Tan(Delta)	Loss Angle(Delta)/deg	dq/mA.h
399996	3.51634	1.61973	3.87145	-24.7322	478.376	-0.000171426	-0.525423	0.245653	0.042999	1	38	0.00651265	0.00168222	0	-0.0089131	-1	-1	-1	0	0	0	0	0	0	-1	-1	-1	0	0	0	0	0	0	0.234608	0.108067	0.258301	24.7322	42.999	93.3484	102.776	-65.2678	0.0000000E+000	0.0000000E+000	0.0000000E+000	65.2678	0.0000000E+000	0.0000000E+000	0.0000000E+000	-65.2678	0.0000000E+000	0.0000000E+000	0.0000000E+000	-24.7322	0.0000000E+000	0.0000000E+000	0.0000000E+000	24.7322	2.17094	65.2678	-0.0089131
20032.3	3.7955	2.71793	4.66829	-35.6062	493.285	-0.00014518	-0.523144	2.92315	0.99086	1	38	0.00726073	0.00155533	0	-0.0110625	0.918496	0.618235	18.099	4.50483e-05	2.04015e-05	2.05197e-05	2.26917e-05	1.592e-05	2.27948e-05	0.0941502	0.0672472	1.86724	7.89455e-07	4.31997e-07	5.78293e-07	6.56381e-07	3.58485e-07	3.41165e-07	0.174162	0.124716	0.214211	35.6062	990.86	1383.7	1701.89	-54.3938	0.0000000E+000	0.0000000E+000	0.0000000E+000	54.3938	0.0000000E+000	0.0000000E+000	0.0000000E+000	-54.3938	0.0000000E+000	0.0000000E+000	0.0000000E+000	-35.6062	0.0000000E+000	0.0000000E+000	0.0000000E+000	35.6062	1.39646	54.3938	-0.000163578
1002.75	14.9531	34.0163	37.1578	-66.2703	508.293	-0.000306478	-0.519216	4.66595	3.91033	1	39	0.00751134	0.000202147	0	-0.0132249	0.933274	0.345142	17.2004	1.93323e-05	3.1162e-05	1.63946e-05	3.54043e-05	2.97451e-05	2.23629e-05	0.629563	0.185554	6.56786	8.64521e-07	3.84601e-07	3.78193e-07	6.19142e-07	2.75243e-07	2.1479e-07	0.0108301	0.0246369	0.0269122	66.2703	3910.33	1718.93	4271.46	-23.7297	0.0000000E+000	0.0000000E+000	0.0000000E+000	23.7297	0.0000000E+000	0.0000000E+000	0.0000000E+000	-23.7297	0.0000000E+000	0.0000000E+000	0.0000000E+000	-66.2703	0.0000000E+000	0.0000000E+000	0.0000000E+000	66.2703	0.439588	23.7297	-0.0001908
50.2089	160.233	262.533	307.569	-58.6028	522.583	-0.000253445	-0.519933	12.0741	8.79711	1	39	0.00675485	2.19621e-05	0	-0.0152662	1.0536	0.484856	18.9982	1.88163e-05	2.24578e-05	2.73813e-05	2.21855e-05	3.24789e-05	3.77409e-05	2.69857	1.83884	59.8145	2.0153e-07	1.94399e-07	1.99289e-07	2.23003e-07	1.81656e-07	3.62345e-07	0.00169383	0.00277524	0.00325131	58.6028	8797.11	5369.19	10306.2	-31.3972	0.0000000E+000	0.0000000E+000	0.0000000E+000	31.3972	0.0000000E+000	0.0000000E+000	0.0000000E+000	-31.3972	0.0000000E+000	0.0000000E+000	0.0000000E+000	-58.6028	0.0000000E+000	0.0000000E+000	0.0000000E+000	58.6028	0.610335	31.3972	-0.000152476
2.51368	1428.1	1721.98	2237.12	-50.3298	541.329	-0.000281137	-0.518896	36.769	21.7852	1	39	0.00674321	3.01424e-06	0	-0.017946	0.359666	0.215363	7.36406	6.74217e-06	1.48082e-05	9.70787e-06	5.83647e-06	8.55415e-06	8.10387e-06	15.8022	42.398	172.995	2.82664e-07	2.243e-07	1.27528e-07	1.31155e-07	9.67842e-08	1.12252e-07	0.000285352	0.000344073	0.000447004	50.3298	21785.2	18067.3	28302.3	-39.6702	0.0000000E+000	0.0000000E+000	0.0000000E+000	39.6702	0.0000000E+000	0.0000000E+000	0.0000000E+000	-39.6702	0.0000000E+000	0.0000000E+000	0.0000000E+000	-50.3298	0.0000000E+000	0.0000000E+000	0.0000000E+000	50.3298	0.829337	39.6702	-0.000401602
0.125939	3519.39	188.994	3524.47	-3.07386	769.568	-0.000255724	-0.516935	6686.74	19.2274	1	39	0.006739	1.91206e-06	0	-0.0507257	0.137514	0.111909	1.64807	2.36508e-06	6.35722e-06	2.48414e-06	4.82715e-06	1.43797e-06	1.18328e-06	26.4031	16.1427	93.2812	9.26664e-08	1.96945e-07	2.71764e-07	2.10201e-07	1.98717e-07	1.60479e-07	0.000283323	1.52146e-05	0.000283731	3.07386	19227.5	358049	358565	-86.9261	0.0000000E+000	0.0000000E+000	0.0000000E+000	86.9261	0.0000000E+000	0.0000000E+000	0.0000000E+000	-86.9261	0.0000000E+000	0.0000000E+000	0.0000000E+000	-3.07386	0.0000000E+000	0.0000000E+000	0.0000000E+000	3.07386	18.6218	86.9261	-0.00700333
31751	3.6233	1.90388	4.09305	-27.7199	845.334	-0.00019428	-0.518616	2.63283	0.569649	2	38	0.00727513	0.00177743	0	-0.0616033	0.893017	0.569103	18.0602	3.18843e-05	2.26126e-05	1.30733e-05	3.27145e-05	2.04635e-05	1.91445e-05	0.0983803	0.0752838	1.65248	7.5405e-07	3.66543e-07	7.49877e-07	6.54175e-07	5.25172e-07	9.76311e-07	0.216277	0.113644	0.244317	27.7199	569.649	1084.11	1224.66	-62.2801	0.0000000E+000	0.0000000E+000	0.0000000E+000	62.2801	0.0000000E+000	0.0000000E+000	0.0000000E+000	-62.2801	0.0000000E+000	0.0000000E+000	0.0000000E+000	-27.7199	0.0000000E+000	0.0000000E+000	0.0000000E+000	27.7199	1.90311	62.2801	-0.000165132
1589.49	10.6905	24.1863	26.4436	-66.1543	860.167	-0.00028506	-0.519966	4.13993	3.4633	2	38	0.00692444	0.000261857	0	-0.0637154	1.14117	0.739839	19.5747	1.58784e-05	3.38308e-05	2.53809e-05	2.54892e-05	4.42435e-05	2.56412e-05	0.623361	0.358455	11.4219	7.74753e-07	4.98092e-07	7.47779e-07	7.43239e-07	4.89941e-07	4.86038e-07	0.0152882	0.0345883	0.0378164	66.1543	3463.3	1530.8	3786.53	-23.8457	0.0000000E+000	0.0000000E+000	0.0000000E+000	23.8457	0.0000000E+000	0.0000000E+000	0.0000000E+000	-23.8457	0.0000000E+000	0.0000000E+000	0.0000000E+000	-66.1543	0.0000000E+000	0.0000000E+000	0.0000000E+000	66.1543	0.442007	23.8457	-0.000158836
79.6177	120.439	193.324	227.771	-58.0774	874.776	-0.000279281	-0.51557	10.3401	7.449	2	39	0.00676129	2.96846e-05	0	-0.0657881	1.18832	0.518812	18.8254	2.62725e-05	2.68008e-05	9.54055e-06	5.1021e-05	3.4489e-05	2.86486e-05	2.84856	1.43904	44.4622	3.93931e-07	2.68102e-07	2.73517e-07	3.17791e-07	3.23981e-07	4.02471e-07	0.00232151	0.00372638	0.00439037	58.0774	7449	4640.68	8776.31	-31.9226	0.0000000E+000	0.0000000E+000	0.0000000E+000	31.9226	0.0000000E+000	0.0000000E+000	0.0000000E+000	-31.9226	0.0000000E+000	0.0000000E+000	0.0000000E+000	-58.0774	0.0000000E+000	0.0000000E+000	0.0000000E+000	58.0774	0.622993	31.9226	-0.000151943
3.98597	926.349	988.026	1354.37	-46.8453	890.562	-0.000254074	-0.516616	40.4127	21.507	2	39	0.00674124	4.9774e-06	0	-0.0680314	0.52442	0.20171	8.93611	1.56032e-05	2.22157e-05	1.14078e-05	1.4429e-05	4.84923e-06	8.37788e-06	8.65897	11.8197	129.096	1.93298e-07	2.21232e-07	1.26042e-07	2.27831e-07	1.00504e-07	8.70084e-08	0.00050501	0.000538634	0.000738351	46.8453	21507	20164.4	29481.5	-43.1547	0.0000000E+000	0.0000000E+000	0.0000000E+000	43.1547	0.0000000E+000	0.0000000E+000	0.0000000E+000	-43.1547	0.0000000E+000	0.0000000E+000	0.0000000E+000	-46.8453	0.0000000E+000	0.0000000E+000	0.0000000E+000	46.8453	0.937576	43.1547	-0.000273421
0.199573	3075.97	389.044	3100.47	-7.20841	1036.26	-0.000271408	-0.515208	2049.84	32.2745	2	39	0.00673943	2.17368e-06	0	-0.0888617	0.131667	0.0821056	1.90791	2.55342e-06	6.10014e-06	1.79139e-06	2.89062e-06	2.9186e-06	2.48455e-06	28.0032	11.4414	83.2406	2.62219e-07	2.10359e-07	1.96149e-07	2.64992e-07	2.83468e-07	2.0759e-07	0.000319982	4.04709e-05	0.000322531	7.20841	32274.5	255178	257211	-82.7916	0.0000000E+000	0.0000000E+000	0.0000000E+000	82.7916	0.0000000E+000	0.0000000E+000	0.0000000E+000	-82.7916	0.0000000E+000	0.0000000E+000	0.0000000E+000	-7.20841	0.0000000E+000	0.0000000E+000	0.0000000E+000	7.20841	7.90648	82.7916	-0.00442087
50326.6	3.51828	1.3603	3.7721	-21.1384	1197.38	-0.000141657	-0.516792	2.32481	0.302338	3	38	0.00721724	0.00191332	0	-0.111891	1.07262	0.382736	18.7825	1.97471e-05	2.84818e-05	4.0543e-05	4.23824e-05	1.2298e-05	2.60417e-05	0.0984703	0.0463129	1.52152	8.27299e-07	5.48446e-07	1.03691e-06	7.09649e-07	3.01427e-07	5.38604e-07	0.247266	0.0956026	0.265104	21.1384	302.338	781.964	838.377	-68.8616	0.0000000E+000	0.0000000E+000	0.0000000E+000	68.8616	0.0000000E+000	0.0000000E+000	0.0000000E+000	-68.8616	0.0000000E+000	0.0000000E+000	0.0000000E+000	-21.1384	0.0000000E+000	0.0000000E+000	0.0000000E+000	21.1384	2.58639	68.8616	-0.00016518
2519.19	7.86983	16.7808	18.5345	-64.8744	1212.08	-0.000316488	-0.516443	3.76485	3.08609	3	38	0.00636595	0.000343465	0	-0.113987	0.942931	0.76047	20.6664	2.6705e-05	2.62371e-05	2.1148e-05	2.09933e-05	2.366e-05	1.98078e-05	0.611998	0.324038	8.35404	1.06621e-06	8.01129e-07	6.96299e-07	8.16598e-07	5.65095e-07	8.47888e-07	0.0229088	0.0488483	0.0539534	64.8744	3086.09	1447.31	3408.62	-25.1256	0.0000000E+000	0.0000000E+000	0.0000000E+000	25.1256	0.0000000E+000	0.0000000E+000	0.0000000E+000	-25.1256	0.0000000E+000	0.0000000E+000	0.0000000E+000	-64.8744	0.0000000E+000	0.0000000E+000	0.0000000E+000	64.8744	0.468979	25.1256	-0.000157514
126.171	85.0143	141.453	165.035	-58.9939	1226.94	-0.000251656	-0.514414	8.91759	6.55123	3	39	0.00673169	4.07895e-05	0	-0.116091	0.896053	0.493704	19.3357	1.68165e-05	2.00109e-05	2.61012e-05	2.77006e-05	2.32859e-05	1.92414e-05	1.62562	0.866184	32.5575	4.05531e-07	1.41942e-07	2.09366e-07	1.91098e-07	2.17056e-07	3.00879e-07	0.00312134	0.00519353	0.00605933	58.9939	6551.23	3937.33	7643.37	-31.0061	0.0000000E+000	0.0000000E+000	0.0000000E+000	31.0061	0.0000000E+000	0.0000000E+000	0.0000000E+000	-31.0061	0.0000000E+000	0.0000000E+000	0.0000000E+000	-58.9939	0.0000000E+000	0.0000000E+000	0.0000000E+000	58.9939	0.601006	31.0061	-0.00015621
6.31569	672.45	808.337	1051.47	-50.2432	1241.37	-0.000251013	-0.514043	31.175	18.4245	3	39	0.00673801	6.40816e-06	0	-0.118132	0.798497	0.249226	13.3588	1.50283e-05	1.83797e-05	1.86783e-05	2.64199e-05	2.1257e-05	1.85675e-05	7.91014	7.20357	146.592	2.2006e-07	1.23718e-07	2.04229e-07	2.76097e-07	1.91779e-07	8.38093e-08	0.000608223	0.000731131	0.000951045	50.2432	18424.5	15327.2	23966.3	-39.7568	0.0000000E+000	0.0000000E+000	0.0000000E+000	39.7568	0.0000000E+000	0.0000000E+000	0.0000000E+000	-39.7568	0.0000000E+000	0.0000000E+000	0.0000000E+000	-50.2432	0.0000000E+000	0.0000000E+000	0.0000000E+000	50.2432	0.831893	39.7568	-0.000195104
0.316193	2580.8	983.818	2761.96	-20.8672	1335.08	-0.000254388	-0.51345	511.627	64.9154	3	39	0.00674095	2.44064e-06	0	-0.131478	0.181208	0.084998	2.60206	1.69441e-06	7.45413e-06	4.94027e-06	3.4457e-06	3.45244e-06	4.74908e-06	27.5468	16.5426	89.3323	1.38842e-07	3.38248e-07	4.57716e-07	1.71285e-07	1.19843e-07	1.44442e-07	0.000338314	0.000128967	0.000362062	20.8672	64915.3	170289	182243	-69.1328	0.0000000E+000	0.0000000E+000	0.0000000E+000	69.1328	0.0000000E+000	0.0000000E+000	0.0000000E+000	-69.1328	0.0000000E+000	0.0000000E+000	0.0000000E+000	-20.8672	0.0000000E+000	0.0000000E+000	0.0000000E+000	20.8672	2.62325	69.1328	-0.00279664
0.0999518	2782.23	279.908	2796.27	-5.74495	1539.66	-0.000263102	-0.512398	5688.72	57.0015	3	39	0.00674309	2.41146e-06	0	-0.160607	0.130541	0.0799939	1.67577	2.092e-06	5.71106e-06	1.95897e-06	5.14053e-06	1.76799e-06	1.32495e-06	21.2977	8.30776	68.8353	2.15696e-07	2.77438e-07	1.43677e-07	2.06362e-07	8.68603e-08	1.31072e-07	0.000355823	3.57978e-05	0.000357619	5.74495	57001.5	566583	569443	-84.2551	0.0000000E+000	0.0000000E+000	0.0000000E+000	84.2551	0.0000000E+000	0.0000000E+000	0.0000000E+000	-84.2551	0.0000000E+000	0.0000000E+000	0.0000000E+000	-5.74495	0.0000000E+000	0.0000000E+000	0.0000000E+000	5.74495	9.93979	84.2551	-0.00873614