File: Python/Data/RDE/240223-OCV-EIS-Fe2Fe3_5mM-HCl1M-1225RPM-Ag_AgCl_BLF8-GC-RDE-1minRestVSEoc-3ppf-14p1mVAmplitude_06_PEIS_C15.mpt
EC-Lab ASCII FILE
Nb header lines : 67

Potentio Electrochemical Impedance Spectroscopy

Run on channel : 15 (SN 19485)
User :
Electrode connection : standard
Potential control : Ewe
Ewe ctrl range : min = -1.00 V, max = 1.00 V
Ewe,I filtering : 50 kHz
Safety Limits :
	Do not start on E overload
Channel : Floating
Acquisition started on : 02/23/2024 14:49:54.683
Loaded Setting File :  NONE
Saved on :
	File : 240223-OCV-EIS-Fe2Fe3_5mM-HCl1M-1225RPM-Ag_AgCl_BLF8-GC-RDE-1minRestVSEoc-3ppf-14p1mVAmplitude_06_PEIS_C15.mpr
	Directory : C:\Data\mathias\RDE-RPM-variation\
	Host : 192.168.0.1
Device : VMP-300 (SN 0826)
Address : USB
EC-Lab for windows v11.52 (software)
Internet server v11.52 (firmware)
Command interpretor v11.52 (firmware)
Electrode material :
Initial state :
Electrolyte :
Comments :
Cable : special
Reference electrode : SCE Saturated Calomel Electrode (0.241 V)
Electrode surface area : 0.001 cm²
Characteristic mass : 0.001 g
Equivalent Weight : 0.000 g/eq.
Density : 0.000 g/cm3
Volume (V) : 0.001 cm³
Record EIS quality indicators
Cycle Definition : Charge/Discharge alternance
Mode                Single sine
E (V)               0.0000
vs.                 Eoc
tE (h:m:s)          0:01:0.0000
record              0
dI                  0.000
unit dI             mA
dt (s)              0.000
fi                  1.000
unit fi             MHz
ff                  100.000
unit ff             mHz
Nd                  10
Points              per decade
spacing             Logarithmic
Va (mV)             14.1
pw                  0.10
Na                  3
corr                0
E range min (V)     -1.000
E range max (V)     1.000
I Range             Auto
Bandwidth           8
nc cycles           0
goto Ns'            0
nr cycles           0
inc. cycle          1

freq/Hz	Re(Z)/Ohm	-Im(Z)/Ohm	|Z|/Ohm	Phase(Z)/deg	time/s	<Ewe>/V	<I>/mA	Cs/µF	Cp/µF	cycle number	I Range	|Ewe|/V	|I|/A	Ns	(Q-Qo)/mA.h	THD Ewe/%	NSD Ewe/%	NSR Ewe/%	|Ewe h2|/V	|Ewe h3|/V	|Ewe h4|/V	|Ewe h5|/V	|Ewe h6|/V	|Ewe h7|/V	THD I/%	NSD I/%	NSR I/%	|I h2|/A	|I h3|/A	|I h4|/A	|I h5|/A	|I h6|/A	|I h7|/A	Re(Y)/Ohm-1	Im(Y)/Ohm-1	|Y|/Ohm-1	Phase(Y)/deg	Re(C)/nF	Im(C)/nF	|C|/nF	Phase(C)/deg	Re(M)	Im(M)	|M|	Phase(M)/deg	Re(Permittivity)	Im(Permittivity)	|Permittivity|	Phase(Permittivity)/deg	Re(Resistivity)/Ohm.cm	Im(Resistivity)/Ohm.cm	|Resistivity|/Ohm.cm	Phase(Resistivity)/deg	Re(Conductivity)/mS/cm	Im(Conductivity)/mS/cm	|Conductivity|/mS/cm	Phase(Conductivity)/deg	Tan(Delta)	Loss Angle(Delta)/deg	dq/mA.h
1.00002e+06	3.55447	4.06805	5.40215	-48.8546	1081.78	0.459637	-0.01171	0.0391224	0.0221852	1	38	0.0111452	0.00206311	0	-8.65597e-06	-1	-1	-1	0	0	0	0	0	0	-1	-1	-1	0	0	0	0	0	0	0.121798	0.139397	0.185111	48.8546	22.1852	19.3844	29.4608	-41.1454	0.0000000E+000	0.0000000E+000	0.0000000E+000	41.1454	0.0000000E+000	0.0000000E+000	0.0000000E+000	-41.1454	0.0000000E+000	0.0000000E+000	0.0000000E+000	-48.8546	0.0000000E+000	0.0000000E+000	0.0000000E+000	48.8546	0.873753	41.1454	-8.65597e-06
316230	3.4576	1.3424	3.70905	-21.2186	1087.38	0.459629	-0.00307238	0.374916	0.0491107	1	38	0.0145833	0.00393181	0	4.64199e-07	-1	-1	-1	0	0	0	0	0	0	-1	-1	-1	0	0	0	0	0	0	0.251333	0.0975796	0.269611	21.2186	49.1107	126.493	135.692	-68.7814	0.0000000E+000	0.0000000E+000	0.0000000E+000	68.7814	0.0000000E+000	0.0000000E+000	0.0000000E+000	-68.7814	0.0000000E+000	0.0000000E+000	0.0000000E+000	-21.2186	0.0000000E+000	0.0000000E+000	0.0000000E+000	21.2186	2.57567	68.7814	5.97995e-06
100004	3.42989	1.051	3.5873	-17.0364	1093.11	0.459622	-0.00186212	1.51426	0.129979	1	38	0.0145652	0.00406021	0	-9.87908e-06	0.44284	0.264056	8.51706	4.2171e-05	2.35791e-05	1.23784e-05	2.01983e-05	2.09766e-05	2.51536e-05	0.0837334	0.0296865	0.702243	2.24296e-06	1.65261e-06	1.0407e-06	9.20602e-07	5.49166e-07	1.01951e-06	0.266529	0.081671	0.278761	17.0364	129.979	424.178	443.645	-72.9636	0.0000000E+000	0.0000000E+000	0.0000000E+000	72.9636	0.0000000E+000	0.0000000E+000	0.0000000E+000	-72.9636	0.0000000E+000	0.0000000E+000	0.0000000E+000	-17.0364	0.0000000E+000	0.0000000E+000	0.0000000E+000	17.0364	3.26344	72.9636	-9.0741e-06
31621.1	3.61826	2.13369	4.20053	-30.5279	1098.85	0.459617	-0.00223638	2.35891	0.608647	1	38	0.014672	0.00349288	0	-9.36266e-07	0.502998	0.273488	8.9609	2.56461e-05	3.32591e-05	2.04726e-05	1.7998e-05	3.95146e-05	3.05131e-05	0.0540221	0.057195	0.838762	4.63319e-07	1.10961e-06	9.11809e-07	6.99246e-07	5.34542e-07	3.50899e-07	0.205065	0.120927	0.238065	30.5279	608.647	1032.13	1198.22	-59.4721	0.0000000E+000	0.0000000E+000	0.0000000E+000	59.4721	0.0000000E+000	0.0000000E+000	0.0000000E+000	-59.4721	0.0000000E+000	0.0000000E+000	0.0000000E+000	-30.5279	0.0000000E+000	0.0000000E+000	0.0000000E+000	30.5279	1.69578	59.4721	-1.35381e-06
10002.2	4.22331	5.7907	7.16719	-53.8958	1104.58	0.459619	-0.00224016	2.74785	1.79373	1	38	0.0145469	0.00202965	0	-1.35105e-05	0.627724	0.282866	8.64465	6.40361e-05	2.74944e-05	2.88176e-05	2.19178e-05	3.01397e-05	2.40247e-05	0.218059	0.0549293	1.44553	4.08311e-06	7.85401e-07	6.79592e-07	1.02099e-06	6.33619e-07	2.78534e-07	0.0822158	0.112729	0.139525	53.8958	1793.73	1308.21	2220.11	-36.1042	0.0000000E+000	0.0000000E+000	0.0000000E+000	36.1042	0.0000000E+000	0.0000000E+000	0.0000000E+000	-36.1042	0.0000000E+000	0.0000000E+000	0.0000000E+000	-53.8958	0.0000000E+000	0.0000000E+000	0.0000000E+000	53.8958	0.729326	36.1042	-2.70286e-06
3163.04	6.35718	16.1174	17.3258	-68.4743	1110.36	0.459513	-0.00377629	3.12191	2.70161	1	38	0.0138377	0.000798675	0	-1.9279e-05	0.492463	0.320318	9.25886	1.93182e-05	2.44701e-05	3.33585e-05	1.84859e-05	1.81644e-05	3.24732e-05	0.809758	0.168182	3.64565	5.89796e-06	2.15452e-06	6.11188e-07	8.01945e-07	6.25344e-07	7.61445e-07	0.0211776	0.0536917	0.0577173	68.4743	2701.61	1065.59	2904.17	-21.5257	0.0000000E+000	0.0000000E+000	0.0000000E+000	21.5257	0.0000000E+000	0.0000000E+000	0.0000000E+000	-21.5257	0.0000000E+000	0.0000000E+000	0.0000000E+000	-68.4743	0.0000000E+000	0.0000000E+000	0.0000000E+000	68.4743	0.39443	21.5258	-1.05768e-06
999.682	13.5525	43.5005	45.5627	-72.6956	1116.15	0.459484	-0.000340911	3.65986	3.33605	1	39	0.0139099	0.00030529	0	-2.35008e-05	0.420626	0.276456	9.03196	1.84025e-05	3.20368e-05	1.36513e-05	2.62805e-05	1.88209e-05	2.21689e-05	1.18256	0.159666	4.39244	2.80214e-06	2.08493e-06	1.95819e-07	7.74166e-07	1.6296e-07	3.57358e-07	0.00652831	0.0209544	0.0219478	72.6956	3336.05	1039.34	3494.21	-17.3044	0.0000000E+000	0.0000000E+000	0.0000000E+000	17.3044	0.0000000E+000	0.0000000E+000	0.0000000E+000	-17.3044	0.0000000E+000	0.0000000E+000	0.0000000E+000	-72.6956	0.0000000E+000	0.0000000E+000	0.0000000E+000	72.6956	0.311549	17.3044	-3.3892e-07
316.316	36.2056	112.941	118.602	-72.2256	1121.67	0.45954	-0.000105519	4.45501	4.03985	1	39	0.0128452	0.000108305	0	-2.36955e-05	0.491456	0.239007	9.59202	1.74067e-05	2.72504e-05	3.55281e-05	1.77456e-05	1.61028e-05	2.54241e-05	1.09713	0.245814	11.7266	8.78754e-07	4.8626e-07	4.18524e-07	2.99841e-07	2.2228e-07	2.05745e-07	0.0025739	0.00802909	0.00843156	72.2256	4039.85	1295.06	4242.36	-17.7744	0.0000000E+000	0.0000000E+000	0.0000000E+000	17.7744	0.0000000E+000	0.0000000E+000	0.0000000E+000	-17.7744	0.0000000E+000	0.0000000E+000	0.0000000E+000	-72.2256	0.0000000E+000	0.0000000E+000	0.0000000E+000	72.2256	0.320572	17.7744	-1.33426e-07
99.9682	105.01	281.762	300.694	-69.5601	1127.44	0.459539	-8.67657e-05	5.65036	4.96126	1	40	0.0129292	4.29979e-05	0	-2.37613e-05	0.96771	0.442883	15.924	4.43977e-05	6.44835e-05	3.73751e-05	5.24707e-05	4.72816e-05	3.64436e-05	1.02937	0.182435	6.27909	3.12967e-07	1.77831e-07	5.10376e-08	2.25862e-07	4.57595e-08	6.775e-08	0.0011614	0.00311626	0.00332564	69.5601	4961.25	1849.01	5294.61	-20.4399	0.0000000E+000	0.0000000E+000	0.0000000E+000	20.4399	0.0000000E+000	0.0000000E+000	0.0000000E+000	-20.4399	0.0000000E+000	0.0000000E+000	0.0000000E+000	-69.5601	0.0000000E+000	0.0000000E+000	0.0000000E+000	69.5601	0.37269	20.4399	1.10047e-08
31.6296	323.775	659.844	735	-63.8635	1132.76	0.459548	-6.43397e-05	7.6258	6.14602	1	40	0.012764	1.7366e-05	0	-2.38119e-05	0.956506	0.407269	16.2595	2.39535e-05	6.13779e-05	4.60283e-05	4.56205e-05	4.69813e-05	5.37569e-05	1.27959	0.414394	15.4127	1.23355e-07	1.0265e-07	6.81378e-08	8.21191e-08	6.07434e-08	6.63101e-08	0.000599334	0.00122143	0.00136054	63.8635	6146.02	3015.75	6846.04	-26.1365	0.0000000E+000	0.0000000E+000	0.0000000E+000	26.1365	0.0000000E+000	0.0000000E+000	0.0000000E+000	-26.1365	0.0000000E+000	0.0000000E+000	0.0000000E+000	-63.8635	0.0000000E+000	0.0000000E+000	0.0000000E+000	63.8635	0.490684	26.1365	7.00657e-09
9.99682	1006.51	1289.9	1636.13	-52.0352	1138.69	0.459532	-7.18424e-05	12.3424	7.67152	1	41	0.0140974	8.61633e-06	0	-2.39624e-05	0.895901	0.574042	18.2359	5.97817e-05	3.75667e-05	6.21355e-05	5.44861e-05	2.52688e-05	4.05552e-05	0.952225	0.159267	5.92191	6.75316e-08	3.71627e-08	9.84789e-09	2.31275e-08	4.92502e-09	8.88039e-09	0.000375996	0.000481862	0.000611199	52.0352	7671.52	5986.07	9730.63	-37.9648	0.0000000E+000	0.0000000E+000	0.0000000E+000	37.9648	0.0000000E+000	0.0000000E+000	0.0000000E+000	-37.9648	0.0000000E+000	0.0000000E+000	0.0000000E+000	-52.0352	0.0000000E+000	0.0000000E+000	0.0000000E+000	52.0352	0.780298	37.9648	-6.11988e-08
3.16296	2431.85	1628.59	2926.81	-33.8098	1147.13	0.459531	-7.21046e-05	30.8969	9.56642	1	41	0.0141015	4.81805e-06	0	-2.41378e-05	0.451492	0.293971	7.8538	2.06306e-05	2.07974e-05	2.75276e-05	2.80571e-05	2.16094e-05	2.79696e-05	0.86846	0.141587	4.82995	3.54854e-08	1.76022e-08	5.02703e-09	9.12062e-09	4.72562e-09	4.09779e-09	0.000283889	0.000190118	0.000341669	33.8098	9566.42	14284.8	17192.2	-56.1902	0.0000000E+000	0.0000000E+000	0.0000000E+000	56.1902	0.0000000E+000	0.0000000E+000	0.0000000E+000	-56.1902	0.0000000E+000	0.0000000E+000	0.0000000E+000	-33.8098	0.0000000E+000	0.0000000E+000	0.0000000E+000	33.8098	1.49323	56.1902	-1.18996e-08
1.00006	3674.4	1126.22	3843.12	-17.0405	1170.88	0.459544	-7.94898e-05	141.309	12.1352	1	42	0.0140871	3.66553e-06	0	-2.46697e-05	0.252089	0.155452	4.34245	9.39531e-06	1.14871e-05	7.69466e-06	1.32685e-05	1.75309e-05	1.80442e-05	0.835839	0.0611013	1.34809	2.7433e-08	1.30005e-08	6.28399e-10	4.00975e-09	3.27893e-10	4.72533e-10	0.000248782	7.62525e-05	0.000260205	17.0405	12135.2	39592.4	41410.4	-72.9595	0.0000000E+000	0.0000000E+000	0.0000000E+000	72.9595	0.0000000E+000	0.0000000E+000	0.0000000E+000	-72.9595	0.0000000E+000	0.0000000E+000	0.0000000E+000	-17.0405	0.0000000E+000	0.0000000E+000	0.0000000E+000	17.0405	3.2626	72.9595	-2.93946e-07
0.316193	4234.4	582.374	4274.26	-7.831	1236.67	0.459523	-8.90124e-05	864.302	16.0453	1	42	0.0140869	3.29576e-06	0	-2.62445e-05	0.16957	0.0911235	2.41571	1.1198e-05	1.23797e-05	5.74096e-06	1.23354e-05	3.02047e-06	6.18879e-06	0.84168	0.0329219	1.51284	2.52755e-08	1.10176e-08	2.39624e-10	3.00118e-09	2.54438e-10	2.85167e-10	0.000231777	3.18773e-05	0.000233959	7.831	16045.3	116664	117763	-82.169	0.0000000E+000	0.0000000E+000	0.0000000E+000	82.169	0.0000000E+000	0.0000000E+000	0.0000000E+000	-82.169	0.0000000E+000	0.0000000E+000	0.0000000E+000	-7.831	0.0000000E+000	0.0000000E+000	0.0000000E+000	7.831	7.27092	82.169	-1.96492e-07
0.0999518	4461.8	258.597	4469.29	-3.31703	1441.26	0.45952	-8.63244e-05	6157.53	20.6146	1	42	0.014085	3.15151e-06	0	-3.23416e-05	0.117174	0.0414315	1.37717	6.33752e-06	7.21539e-06	2.76209e-06	1.0049e-05	5.28605e-06	4.50217e-06	0.875255	0.0275151	1.50824	2.5489e-08	1.01846e-08	2.29338e-10	2.67117e-09	3.45449e-10	2.26418e-10	0.000223374	1.29463e-05	0.000223749	3.31703	20614.6	355683	356280	-86.683	0.0000000E+000	0.0000000E+000	0.0000000E+000	86.683	0.0000000E+000	0.0000000E+000	0.0000000E+000	-86.683	0.0000000E+000	0.0000000E+000	0.0000000E+000	-3.31703	0.0000000E+000	0.0000000E+000	0.0000000E+000	3.31703	17.2539	86.683	-1.96832e-06