File: Python/Data/RDE/240223-OCV-EIS-Fe2Fe3_5mM-HCl1M-625RPM-Ag_AgCl_BLF8-GC-RDE-1minRestVSEoc-3ppf-14p1mVAmplitude_04_PEIS_C15.mpt
EC-Lab ASCII FILE
Nb header lines : 67

Potentio Electrochemical Impedance Spectroscopy

Run on channel : 15 (SN 19485)
User :
Electrode connection : standard
Potential control : Ewe
Ewe ctrl range : min = -1.00 V, max = 1.00 V
Ewe,I filtering : 50 kHz
Safety Limits :
	Do not start on E overload
Channel : Floating
Acquisition started on : 02/23/2024 15:19:09.853
Loaded Setting File :  NONE
Saved on :
	File : 240223-OCV-EIS-Fe2Fe3_5mM-HCl1M-625RPM-Ag_AgCl_BLF8-GC-RDE-1minRestVSEoc-3ppf-14p1mVAmplitude_04_PEIS_C15.mpr
	Directory : C:\Data\mathias\RDE-RPM-variation\
	Host : 192.168.0.1
Device : VMP-300 (SN 0826)
Address : USB
EC-Lab for windows v11.52 (software)
Internet server v11.52 (firmware)
Command interpretor v11.52 (firmware)
Electrode material :
Initial state :
Electrolyte :
Comments :
Cable : special
Reference electrode : SCE Saturated Calomel Electrode (0.241 V)
Electrode surface area : 0.001 cm²
Characteristic mass : 0.001 g
Equivalent Weight : 0.000 g/eq.
Density : 0.000 g/cm3
Volume (V) : 0.001 cm³
Record EIS quality indicators
Cycle Definition : Charge/Discharge alternance
Mode                Single sine
E (V)               0.0000
vs.                 Eoc
tE (h:m:s)          0:01:0.0000
record              0
dI                  0.000
unit dI             mA
dt (s)              0.000
fi                  1.000
unit fi             MHz
ff                  100.000
unit ff             mHz
Nd                  10
Points              per decade
spacing             Logarithmic
Va (mV)             14.1
pw                  0.10
Na                  3
corr                0
E range min (V)     -1.000
E range max (V)     1.000
I Range             Auto
Bandwidth           8
nc cycles           0
goto Ns'            0
nr cycles           0
inc. cycle          1

freq/Hz	Re(Z)/Ohm	-Im(Z)/Ohm	|Z|/Ohm	Phase(Z)/deg	time/s	<Ewe>/V	<I>/mA	Cs/µF	Cp/µF	cycle number	I Range	|Ewe|/V	|I|/A	Ns	(Q-Qo)/mA.h	THD Ewe/%	NSD Ewe/%	NSR Ewe/%	|Ewe h2|/V	|Ewe h3|/V	|Ewe h4|/V	|Ewe h5|/V	|Ewe h6|/V	|Ewe h7|/V	THD I/%	NSD I/%	NSR I/%	|I h2|/A	|I h3|/A	|I h4|/A	|I h5|/A	|I h6|/A	|I h7|/A	Re(Y)/Ohm-1	Im(Y)/Ohm-1	|Y|/Ohm-1	Phase(Y)/deg	Re(C)/nF	Im(C)/nF	|C|/nF	Phase(C)/deg	Re(M)	Im(M)	|M|	Phase(M)/deg	Re(Permittivity)	Im(Permittivity)	|Permittivity|	Phase(Permittivity)/deg	Re(Resistivity)/Ohm.cm	Im(Resistivity)/Ohm.cm	|Resistivity|/Ohm.cm	Phase(Resistivity)/deg	Re(Conductivity)/mS/cm	Im(Conductivity)/mS/cm	|Conductivity|/mS/cm	Phase(Conductivity)/deg	Tan(Delta)	Loss Angle(Delta)/deg	dq/mA.h
1.00002e+06	3.52542	4.08494	5.39586	-49.2048	602.365	0.459517	-0.0100063	0.0389607	0.0223293	1	38	0.011144	0.00206528	0	-7.3268e-06	-1	-1	-1	0	0	0	0	0	0	-1	-1	-1	0	0	0	0	0	0	0.121085	0.140302	0.185327	49.2048	22.3293	19.2709	29.4952	-40.7952	0.0000000E+000	0.0000000E+000	0.0000000E+000	40.7952	0.0000000E+000	0.0000000E+000	0.0000000E+000	-40.7952	0.0000000E+000	0.0000000E+000	0.0000000E+000	-49.2048	0.0000000E+000	0.0000000E+000	0.0000000E+000	49.2048	0.86303	40.7952	-7.3268e-06
316230	3.44551	1.35756	3.70331	-21.5048	607.964	0.459487	-0.000942336	0.370731	0.0498191	1	38	0.0145603	0.0039317	0	-1.56027e-05	-1	-1	-1	0	0	0	0	0	0	-1	-1	-1	0	0	0	0	0	0	0.251231	0.0989871	0.270029	21.5048	49.8191	126.442	135.902	-68.4952	0.0000000E+000	0.0000000E+000	0.0000000E+000	68.4952	0.0000000E+000	0.0000000E+000	0.0000000E+000	-68.4952	0.0000000E+000	0.0000000E+000	0.0000000E+000	-21.5048	0.0000000E+000	0.0000000E+000	0.0000000E+000	21.5048	2.53802	68.4952	7.15224e-06
100004	3.41183	1.05369	3.57083	-17.1625	613.699	0.459491	-0.000849227	1.5104	0.131516	1	38	0.0145465	0.00407369	0	-3.07105e-05	0.486188	0.335569	8.92422	2.76505e-05	2.33344e-05	2.98968e-05	2.55191e-05	3.0225e-05	2.94748e-05	0.070974	0.0541687	0.707873	1.9907e-06	1.3029e-06	1.08601e-06	3.56311e-07	9.26035e-07	3.64799e-07	0.267577	0.0826369	0.280047	17.1625	131.516	425.846	445.692	-72.8375	0.0000000E+000	0.0000000E+000	0.0000000E+000	72.8375	0.0000000E+000	0.0000000E+000	0.0000000E+000	-72.8375	0.0000000E+000	0.0000000E+000	0.0000000E+000	-17.1625	0.0000000E+000	0.0000000E+000	0.0000000E+000	17.1625	3.23798	72.8375	-7.33067e-06
31621.1	3.61379	2.15001	4.205	-30.7504	619.435	0.459531	-0.00199061	2.341	0.612001	1	38	0.0146812	0.00349137	0	-1.06681e-05	0.400487	0.301944	9.06322	2.25224e-05	3.59466e-05	1.5201e-05	2.01233e-05	1.20288e-05	1.67084e-05	0.0632354	0.116322	0.821976	6.26666e-07	1.19579e-06	7.55822e-07	6.18198e-07	6.9031e-07	4.402e-07	0.204377	0.121593	0.237812	30.7504	612.001	1028.66	1196.95	-59.2496	0.0000000E+000	0.0000000E+000	0.0000000E+000	59.2496	0.0000000E+000	0.0000000E+000	0.0000000E+000	-59.2496	0.0000000E+000	0.0000000E+000	0.0000000E+000	-30.7504	0.0000000E+000	0.0000000E+000	0.0000000E+000	30.7504	1.68082	59.2496	-1.44845e-06
10002.2	4.2147	5.85328	7.2128	-54.2439	625.169	0.459517	-0.000866057	2.71847	1.79025	1	38	0.0144839	0.00200808	0	-7.29164e-06	0.502499	0.239097	9.19441	3.48407e-05	3.19973e-05	1.99766e-05	2.08094e-05	3.36297e-05	2.54678e-05	0.207761	0.187962	1.45575	3.83702e-06	7.55709e-07	7.65878e-07	8.05102e-07	6.12428e-07	5.02128e-07	0.0810136	0.11251	0.138642	54.2439	1790.25	1289.09	2206.07	-35.7561	0.0000000E+000	0.0000000E+000	0.0000000E+000	35.7561	0.0000000E+000	0.0000000E+000	0.0000000E+000	-35.7561	0.0000000E+000	0.0000000E+000	0.0000000E+000	-54.2439	0.0000000E+000	0.0000000E+000	0.0000000E+000	54.2439	0.720057	35.7561	1.8034e-06
3163.04	6.37339	16.2739	17.4774	-68.6131	630.948	0.459403	-0.00231281	3.09188	2.68072	1	38	0.0138078	0.000790034	0	-6.5661e-06	0.506072	0.249931	9.6193	2.79152e-05	1.84378e-05	1.63878e-05	2.44815e-05	4.05055e-05	2.09676e-05	0.840062	0.112093	3.56009	5.9147e-06	2.59783e-06	3.93432e-07	9.70196e-07	7.07886e-07	2.7506e-07	0.0208648	0.0532766	0.0572166	68.6131	2680.72	1049.86	2878.97	-21.3869	0.0000000E+000	0.0000000E+000	0.0000000E+000	21.3869	0.0000000E+000	0.0000000E+000	0.0000000E+000	-21.3869	0.0000000E+000	0.0000000E+000	0.0000000E+000	-68.6131	0.0000000E+000	0.0000000E+000	0.0000000E+000	68.6131	0.391632	21.3869	-2.03037e-07
999.682	13.6169	44.0816	46.1368	-72.834	636.734	0.459397	-0.000134216	3.61161	3.29701	1	39	0.0139027	0.000301337	0	-9.90507e-06	0.65371	0.206113	9.37328	5.55904e-05	4.01544e-05	1.71565e-05	2.3512e-05	3.34656e-05	2.52529e-05	1.22223	0.126481	4.48257	2.98703e-06	1.96611e-06	2.60908e-07	5.95075e-07	3.1116e-07	3.37652e-07	0.00639707	0.0207091	0.0216747	72.834	3297.01	1018.45	3450.73	-17.166	0.0000000E+000	0.0000000E+000	0.0000000E+000	17.166	0.0000000E+000	0.0000000E+000	0.0000000E+000	-17.166	0.0000000E+000	0.0000000E+000	0.0000000E+000	-72.834	0.0000000E+000	0.0000000E+000	0.0000000E+000	72.834	0.308901	17.166	-2.99466e-07
316.316	36.0832	114.186	119.751	-72.4632	642.263	0.459398	2.30831e-05	4.40644	4.00637	1	39	0.0128504	0.000107309	0	-1.01129e-05	0.451162	0.32575	10.0786	1.90027e-05	2.56911e-05	1.76765e-05	2.45966e-05	2.91972e-05	1.92582e-05	1.08667	0.473389	12.5201	7.96684e-07	6.01198e-07	2.60522e-07	2.85245e-07	3.74679e-07	1.58645e-07	0.0025162	0.00796254	0.00835065	72.4632	4006.37	1266.03	4201.64	-17.5368	0.0000000E+000	0.0000000E+000	0.0000000E+000	17.5368	0.0000000E+000	0.0000000E+000	0.0000000E+000	-17.5368	0.0000000E+000	0.0000000E+000	0.0000000E+000	-72.4632	0.0000000E+000	0.0000000E+000	0.0000000E+000	72.4632	0.316005	17.5368	-1.33845e-07
99.9682	106.289	286.151	305.254	-69.6228	648.024	0.459427	-0.00010692	5.56369	4.88913	1	40	0.0129527	4.24327e-05	0	-1.02721e-05	0.894467	0.492146	15.5658	5.03138e-05	4.05414e-05	1.48291e-05	5.10165e-05	6.09233e-05	4.2881e-05	1.00132	0.19649	6.27412	3.48288e-07	1.69557e-07	2.06002e-08	1.29314e-07	7.51065e-08	5.75485e-08	0.00114069	0.00307096	0.00327596	69.6228	4889.13	1816.04	5215.52	-20.3772	0.0000000E+000	0.0000000E+000	0.0000000E+000	20.3772	0.0000000E+000	0.0000000E+000	0.0000000E+000	-20.3772	0.0000000E+000	0.0000000E+000	0.0000000E+000	-69.6228	0.0000000E+000	0.0000000E+000	0.0000000E+000	69.6228	0.371444	20.3772	1.23368e-08
31.6296	325.301	665.755	740.979	-63.9589	653.351	0.459378	-3.0383e-05	7.55809	6.10139	1	40	0.0127232	1.71708e-05	0	-1.0327e-05	0.840307	0.390772	15.69	2.1503e-05	2.24588e-05	6.27916e-05	3.40085e-05	5.11098e-05	4.4844e-05	1.24336	0.311428	15.2105	1.23985e-07	7.6935e-08	8.8017e-08	5.15819e-08	6.19455e-08	8.00665e-08	0.00059248	0.00121256	0.00134957	63.9589	6101.39	2981.26	6790.79	-26.0411	0.0000000E+000	0.0000000E+000	0.0000000E+000	26.0411	0.0000000E+000	0.0000000E+000	0.0000000E+000	-26.0411	0.0000000E+000	0.0000000E+000	0.0000000E+000	-63.9589	0.0000000E+000	0.0000000E+000	0.0000000E+000	63.9589	0.48862	26.0411	3.71414e-09
9.99682	1015.21	1316.46	1662.44	-52.3617	659.274	0.45939	-8.90106e-05	12.0935	7.58353	1	41	0.014111	8.48812e-06	0	-1.04951e-05	1.06856	0.526089	18.0988	5.53541e-05	4.60929e-05	6.9744e-05	6.40391e-05	4.28892e-05	5.60725e-05	0.993155	0.179359	5.85855	6.87025e-08	2.89754e-08	1.58717e-08	3.08723e-08	7.46267e-09	1.26764e-08	0.000367336	0.000476336	0.000601524	52.3617	7583.53	5848.2	9576.6	-37.6383	0.0000000E+000	0.0000000E+000	0.0000000E+000	37.6383	0.0000000E+000	0.0000000E+000	0.0000000E+000	-37.6383	0.0000000E+000	0.0000000E+000	0.0000000E+000	-52.3617	0.0000000E+000	0.0000000E+000	0.0000000E+000	52.3617	0.77117	37.6384	-5.50131e-08
3.16296	2473.16	1671.54	2985.06	-34.0536	667.715	0.459435	-9.6787e-05	30.1031	9.43925	1	41	0.0141139	4.7282e-06	0	-1.07313e-05	0.461655	0.208228	7.88865	2.89701e-05	1.33758e-05	1.78748e-05	2.45566e-05	3.29364e-05	3.0129e-05	0.903211	0.118399	4.85019	3.61222e-08	1.95488e-08	2.52373e-09	7.24848e-09	5.35152e-09	4.9884e-09	0.000277554	0.00018759	0.000335002	34.0536	9439.25	13966.1	16856.8	-55.9464	0.0000000E+000	0.0000000E+000	0.0000000E+000	55.9464	0.0000000E+000	0.0000000E+000	0.0000000E+000	-55.9464	0.0000000E+000	0.0000000E+000	0.0000000E+000	-34.0536	0.0000000E+000	0.0000000E+000	0.0000000E+000	34.0536	1.47957	55.9464	-4.49605e-08
1.00006	3745.61	1172.47	3924.83	-17.3814	691.464	0.459438	-9.81382e-05	135.735	12.113	1	42	0.0140994	3.59236e-06	0	-1.13301e-05	0.271101	0.147002	4.37896	1.69435e-05	1.68898e-05	1.5718e-05	1.68739e-05	1.05153e-05	1.00011e-05	0.846468	0.0576532	1.11595	2.74331e-08	1.24411e-08	8.88569e-10	3.85726e-09	7.64673e-10	4.17344e-10	0.000243154	7.6113e-05	0.000254788	17.3814	12113	38696.7	40548.3	-72.6186	0.0000000E+000	0.0000000E+000	0.0000000E+000	72.6186	0.0000000E+000	0.0000000E+000	0.0000000E+000	-72.6186	0.0000000E+000	0.0000000E+000	0.0000000E+000	-17.3814	0.0000000E+000	0.0000000E+000	0.0000000E+000	17.3814	3.19464	72.6186	-2.66826e-07
0.316193	4351.07	637.628	4397.54	-8.33708	757.26	0.459432	-9.76832e-05	789.407	16.5965	1	42	0.0140899	3.20404e-06	0	-1.32264e-05	0.171442	0.0675547	2.39602	1.0482e-05	1.08173e-05	5.97836e-06	1.31615e-05	9.0117e-06	4.95085e-06	0.848521	0.0454657	1.24003	2.47761e-08	1.0747e-08	2.74392e-10	3.05107e-09	3.55992e-10	3.24096e-10	0.000224997	3.29722e-05	0.0002274	8.33708	16596.5	113252	114461	-81.6629	0.0000000E+000	0.0000000E+000	0.0000000E+000	81.6629	0.0000000E+000	0.0000000E+000	0.0000000E+000	-81.6629	0.0000000E+000	0.0000000E+000	0.0000000E+000	-8.33708	0.0000000E+000	0.0000000E+000	0.0000000E+000	8.33708	6.82383	81.6629	-3.36829e-07
0.0999518	4605.56	284.925	4614.36	-3.54012	961.843	0.45943	-9.32614e-05	5588.55	21.3077	1	42	0.0140878	3.05304e-06	0	-1.99861e-05	0.100585	0.0512716	1.40138	3.85947e-06	6.97582e-06	5.61402e-06	7.48278e-06	5.3791e-06	3.0874e-06	0.869998	0.053189	1.35482	2.45152e-08	9.97771e-09	3.12583e-10	2.16821e-09	2.55477e-10	1.44643e-10	0.000216301	1.33816e-05	0.000216715	3.54012	21307.7	344420	345079	-86.4599	0.0000000E+000	0.0000000E+000	0.0000000E+000	86.4599	0.0000000E+000	0.0000000E+000	0.0000000E+000	-86.4599	0.0000000E+000	0.0000000E+000	0.0000000E+000	-3.54012	0.0000000E+000	0.0000000E+000	0.0000000E+000	3.54012	16.1641	86.4599	-2.3124e-06