File: Python/Data/RDE/240223-OCV-EIS-Fe2Fe3_5mM-HCl1M-625RPM-Ag_AgCl_BLF8-GC-RDE-1minRestVSEoc-3ppf-14p1mVAmplitude_07_OCV_C15.mpt
EC-Lab ASCII FILE
Nb header lines : 47

Open Circuit Voltage

Run on channel : 15 (SN 19485)
User :
Electrode connection : standard
Potential control : Ewe
Ewe ctrl range : min = -1.00 V, max = 1.00 V
Ewe,I filtering : 50 kHz
Safety Limits :
	Do not start on E overload
Channel : Floating
Acquisition started on : 02/23/2024 15:19:09.853
Loaded Setting File :  NONE
Saved on :
	File : 240223-OCV-EIS-Fe2Fe3_5mM-HCl1M-625RPM-Ag_AgCl_BLF8-GC-RDE-1minRestVSEoc-3ppf-14p1mVAmplitude_07_OCV_C15.mpr
	Directory : C:\Data\mathias\RDE-RPM-variation\
	Host : 192.168.0.1
Device : VMP-300 (SN 0826)
Address : USB
EC-Lab for windows v11.52 (software)
Internet server v11.52 (firmware)
Command interpretor v11.52 (firmware)
Electrode material :
Initial state :
Electrolyte :
Comments :
Cable : special
Reference electrode : SCE Saturated Calomel Electrode (0.241 V)
Electrode surface area : 0.001 cm²
Characteristic mass : 0.001 g
Equivalent Weight : 0.000 g/eq.
Density : 0.000 g/cm3
Volume (V) : 0.001 cm³
Record EIS quality indicators
Cycle Definition : Charge/Discharge alternance
tR (h:m:s)          0:01:0.0000
dER/dt (mV/h)       1.0
record              <Ewe>
dER (mV)            0.00
dtR (s)             0.5000
E range min (V)     -1.000
E range max (V)     1.000

mode	error	time/s	<Ewe/V>
3	0	1444.63	0.45822
3	0	1445.13	0.45935
3	0	1445.63	0.459591
3	0	1446.13	0.459671
3	0	1446.63	0.459704
3	0	1447.13	0.459719
3	0	1447.63	0.459725
3	0	1448.13	0.459734
3	0	1448.63	0.459736
3	0	1449.13	0.459734
3	0	1449.63	0.459735
3	0	1450.13	0.459737
3	0	1450.63	0.459737
3	0	1451.13	0.459734
3	0	1451.63	0.459734
3	0	1452.13	0.459732
3	0	1452.63	0.459732
3	0	1453.13	0.459733
3	0	1453.63	0.45973
3	0	1454.13	0.459731
3	0	1454.63	0.459731
3	0	1455.13	0.459728
3	0	1455.63	0.459729
3	0	1456.13	0.459728
3	0	1456.63	0.459728
3	0	1457.13	0.459728
3	0	1457.63	0.45973
3	0	1458.13	0.459731
3	0	1458.63	0.459728
3	0	1459.13	0.459727
3	0	1459.63	0.459729
3	0	1460.13	0.459727
3	0	1460.63	0.459724
3	0	1461.13	0.459725
3	0	1461.63	0.459725
3	0	1462.13	0.459727
3	0	1462.63	0.459726
3	0	1463.13	0.459729
3	0	1463.63	0.459731
3	0	1464.13	0.459728
3	0	1464.63	0.459726
3	0	1465.13	0.459729
3	0	1465.63	0.459729
3	0	1466.13	0.459725
3	0	1466.63	0.459724
3	0	1467.13	0.459727
3	0	1467.63	0.459726
3	0	1468.13	0.459725
3	0	1468.63	0.459724
3	0	1469.13	0.459723
3	0	1469.63	0.459719
3	0	1470.13	0.459719
3	0	1470.63	0.45972
3	0	1471.13	0.45972
3	0	1471.63	0.45972
3	0	1472.13	0.459717
3	0	1472.63	0.459715
3	0	1473.13	0.459711
3	0	1473.63	0.459717
3	0	1474.13	0.45972
3	0	1474.63	0.459716
3	0	1475.13	0.459716
3	0	1475.63	0.45971
3	0	1476.13	0.459713
3	0	1476.63	0.459713
3	0	1477.13	0.459713
3	0	1477.63	0.459715
3	0	1478.13	0.459711
3	0	1478.63	0.45971
3	0	1479.13	0.45971
3	0	1479.63	0.459706
3	0	1480.13	0.459709
3	0	1480.63	0.459707
3	0	1481.13	0.459707
3	0	1481.63	0.459704
3	0	1482.13	0.459702
3	0	1482.63	0.459703
3	0	1483.13	0.459702
3	0	1483.63	0.459704
3	0	1484.13	0.459703
3	0	1484.63	0.459702
3	0	1485.13	0.459703
3	0	1485.63	0.459701
3	0	1486.13	0.459701
3	0	1486.63	0.4597
3	0	1487.13	0.459701
3	0	1487.63	0.459701
3	0	1488.13	0.4597
3	0	1488.63	0.459701
3	0	1489.13	0.459699
3	0	1489.63	0.459696
3	0	1490.13	0.459695
3	0	1490.63	0.459696
3	0	1491.13	0.459696
3	0	1491.63	0.459697
3	0	1492.13	0.459699
3	0	1492.63	0.459701
3	0	1493.13	0.459701
3	0	1493.63	0.4597
3	0	1494.13	0.459699
3	0	1494.63	0.459702
3	0	1495.13	0.459702
3	0	1495.63	0.459698
3	0	1496.13	0.459696
3	0	1496.63	0.459697
3	0	1497.13	0.459696
3	0	1497.63	0.459695
3	0	1498.13	0.459696
3	0	1498.63	0.459699
3	0	1499.13	0.4597
3	0	1499.63	0.459695
3	0	1500.13	0.459695
3	0	1500.63	0.459698
3	0	1501.13	0.459694
3	0	1501.63	0.459693
3	0	1502.13	0.459691
3	0	1502.63	0.459692
3	0	1503.13	0.459695
3	0	1503.63	0.459696
3	0	1504.13	0.459694
3	0	1504.29	0.459697