File: Python/Data/RDE/240219-CV-EIS-Fe2Fe3_5mM-HCl1M-1225RPM-Ag_AgCl_BLF8-GC-RDE_03_PEIS_C15.mpt
EC-Lab ASCII FILE
Nb header lines : 66

Potentio Electrochemical Impedance Spectroscopy

Run on channel : 15 (SN 19485)
User :
Electrode connection : standard
Potential control : Ewe
Ewe ctrl range : min = -1.00 V, max = 1.00 V
Ewe,I filtering : <None>
Safety Limits :
	Do not start on E overload
Channel : Floating
Acquisition started on : 02/19/2024 16:52:12.543
Loaded Setting File :  C:\Data\mathias\RDE-RPM-variation\240219-CV-EIS-Fe2Fe3_5mM-HCl1M-RPMtest-Ag_AgCl_BLF8-GC-RDE.mps
Saved on :
	File : 240219-CV-EIS-Fe2Fe3_5mM-HCl1M-1225RPM-Ag_AgCl_BLF8-GC-RDE_03_PEIS_C15.mpr
	Directory : C:\Data\mathias\RDE-RPM-variation\
	Host : 192.168.0.1
Device : VMP-300 (SN 0826)
Address : USB
EC-Lab for windows v11.52 (software)
Internet server v11.52 (firmware)
Command interpretor v11.52 (firmware)
Electrode material :
Initial state :
Electrolyte :
Comments :
Cable : special
Electrode surface area : 0.001 cm²
Characteristic mass : 0.001 g
Equivalent Weight : 0.000 g/eq.
Density : 0.000 g/cm3
Volume (V) : 0.001 cm³
Record EIS quality indicators
Cycle Definition : Charge/Discharge alternance
Mode                Single sine
E (V)               0.0000
vs.                 Ref
tE (h:m:s)          0:00:0.0000
record              0
dI                  0.000
unit dI             mA
dt (s)              0.000
fi                  400.000
unit fi             kHz
ff                  100.000
unit ff             mHz
Nd                  10
Points              per decade
spacing             Logarithmic
Va (mV)             7.0
pw                  0.10
Na                  3
corr                0
E range min (V)     -1.000
E range max (V)     1.000
I Range             Auto
Bandwidth           8
nc cycles           2
goto Ns'            0
nr cycles           0
inc. cycle          1

freq/Hz	Re(Z)/Ohm	-Im(Z)/Ohm	|Z|/Ohm	Phase(Z)/deg	time/s	<Ewe>/V	<I>/mA	Cs/µF	Cp/µF	cycle number	I Range	|Ewe|/V	|I|/A	Ns	(Q-Qo)/mA.h	THD Ewe/%	NSD Ewe/%	NSR Ewe/%	|Ewe h2|/V	|Ewe h3|/V	|Ewe h4|/V	|Ewe h5|/V	|Ewe h6|/V	|Ewe h7|/V	THD I/%	NSD I/%	NSR I/%	|I h2|/A	|I h3|/A	|I h4|/A	|I h5|/A	|I h6|/A	|I h7|/A	Re(Y)/Ohm-1	Im(Y)/Ohm-1	|Y|/Ohm-1	Phase(Y)/deg	Re(C)/nF	Im(C)/nF	|C|/nF	Phase(C)/deg	Re(M)	Im(M)	|M|	Phase(M)/deg	Re(Permittivity)	Im(Permittivity)	|Permittivity|	Phase(Permittivity)/deg	Re(Resistivity)/Ohm.cm	Im(Resistivity)/Ohm.cm	|Resistivity|/Ohm.cm	Phase(Resistivity)/deg	Re(Conductivity)/mS/cm	Im(Conductivity)/mS/cm	|Conductivity|/mS/cm	Phase(Conductivity)/deg	Tan(Delta)	Loss Angle(Delta)/deg	dq/mA.h
399996	3.68135	1.3077	3.90671	-19.5563	362.416	-0.000158378	-0.401523	0.304267	0.0340918	1	38	0.00648203	0.0016592	0	-0.00025466	-1	-1	-1	0	0	0	0	0	0	-1	-1	-1	0	0	0	0	0	0	0.241204	0.0856814	0.25597	19.5563	34.0918	95.9728	101.848	-70.4437	0.0000000E+000	0.0000000E+000	0.0000000E+000	70.4437	0.0000000E+000	0.0000000E+000	0.0000000E+000	-70.4437	0.0000000E+000	0.0000000E+000	0.0000000E+000	-19.5563	0.0000000E+000	0.0000000E+000	0.0000000E+000	19.5563	2.81512	70.4437	-0.00025466
20032.3	3.88281	2.28971	4.50766	-30.5281	377.329	-0.000130566	-0.394388	3.46983	0.8953	1	38	0.00724646	0.00160759	0	-0.00188082	0.749284	0.323404	15.0879	2.21192e-05	1.72304e-05	1.54661e-05	2.28605e-05	2.02561e-05	2.35807e-05	0.114895	0.0521677	1.91993	9.65158e-07	9.38903e-07	4.33223e-07	7.53726e-07	4.38718e-07	4.9885e-07	0.191093	0.112688	0.221845	30.5281	895.3	1518.22	1762.54	-59.4719	0.0000000E+000	0.0000000E+000	0.0000000E+000	59.4719	0.0000000E+000	0.0000000E+000	0.0000000E+000	-59.4719	0.0000000E+000	0.0000000E+000	0.0000000E+000	-30.5281	0.0000000E+000	0.0000000E+000	0.0000000E+000	30.5281	1.69576	59.4719	-0.000124036
1002.75	12.8691	28.0607	30.8709	-65.3631	392.268	-0.000235065	-0.393196	5.65625	4.67332	1	38	0.00669421	0.000216845	0	-0.00349448	1.09167	0.434913	16.4742	1.85278e-05	3.46722e-05	1.89868e-05	4.78639e-05	1.87921e-05	1.63148e-05	0.982405	0.459536	13.508	8.28064e-07	1.43383e-06	5.29791e-07	6.45026e-07	5.97642e-07	4.82889e-07	0.0135035	0.0294441	0.0323929	65.3631	4673.32	2143.26	5141.35	-24.6369	0.0000000E+000	0.0000000E+000	0.0000000E+000	24.6369	0.0000000E+000	0.0000000E+000	0.0000000E+000	-24.6369	0.0000000E+000	0.0000000E+000	0.0000000E+000	-65.3631	0.0000000E+000	0.0000000E+000	0.0000000E+000	65.3631	0.458616	24.6369	-0.000120022
50.2089	145.329	201.543	248.476	-54.2053	407.066	-0.00023665	-0.385868	15.7279	10.3476	1	40	0.00659781	2.65531e-05	0	-0.005061	1.85014	1.21637	32.8723	4.16748e-05	5.61316e-05	5.65878e-05	4.14518e-05	4.14148e-05	3.1304e-05	0.62	0.453472	12.1652	9.36729e-08	6.30507e-08	6.9121e-08	5.96464e-08	4.05786e-08	4.21432e-08	0.00235388	0.00326438	0.00402454	54.2053	10347.6	7461.47	12757.2	-35.7947	0.0000000E+000	0.0000000E+000	0.0000000E+000	35.7947	0.0000000E+000	0.0000000E+000	0.0000000E+000	-35.7947	0.0000000E+000	0.0000000E+000	0.0000000E+000	-54.2053	0.0000000E+000	0.0000000E+000	0.0000000E+000	54.2053	0.721082	35.7947	-0.000113662
2.51368	954.841	853.639	1280.79	-41.7971	425.814	-0.000212742	-0.385323	74.1714	32.9481	1	40	0.00658371	5.14036e-06	0	-0.00705397	0.695007	0.237482	12.1337	1.8838e-05	1.6344e-05	1.42343e-05	1.41281e-05	2.32665e-05	1.95752e-05	8.73586	22.9661	22.4601	3.21859e-07	1.94965e-07	1.40753e-07	6.03092e-08	6.72612e-08	6.39148e-08	0.000582071	0.000520378	0.000780769	41.7971	32948.1	36854.2	49434.8	-48.2029	0.0000000E+000	0.0000000E+000	0.0000000E+000	48.2029	0.0000000E+000	0.0000000E+000	0.0000000E+000	-48.2029	0.0000000E+000	0.0000000E+000	0.0000000E+000	-41.7971	0.0000000E+000	0.0000000E+000	0.0000000E+000	41.7971	1.11855	48.2029	-0.000298628
0.125939	2735.36	238.407	2745.73	-4.98115	654.053	-0.00023461	-0.382888	5300.81	39.9634	1	40	0.00658701	2.399e-06	0	-0.0313667	0.16559	0.0751749	2.60535	3.22226e-06	6.72884e-06	3.98576e-06	4.05832e-06	2.21648e-06	3.98899e-06	39.5085	18.0494	78.1847	4.33749e-07	3.85865e-07	3.97578e-07	4.15689e-07	2.25488e-07	2.49768e-07	0.000362826	3.16229e-05	0.000364201	4.98115	39963.4	458521	460259	-85.0188	0.0000000E+000	0.0000000E+000	0.0000000E+000	85.0188	0.0000000E+000	0.0000000E+000	0.0000000E+000	-85.0188	0.0000000E+000	0.0000000E+000	0.0000000E+000	-4.98115	0.0000000E+000	0.0000000E+000	0.0000000E+000	4.98115	11.4735	85.0188	-0.00518737
31751	3.72366	1.66047	4.07711	-24.0332	730.158	-0.000140594	-0.382686	3.01878	0.500713	2	38	0.00724516	0.00177704	0	-0.039452	0.78969	0.508264	16.2461	2.03992e-05	1.91467e-05	2.2202e-05	2.62119e-05	2.44766e-05	2.10371e-05	0.0974577	0.0590476	1.69337	7.20492e-07	5.19255e-07	5.14723e-07	6.84792e-07	6.49545e-07	8.28629e-07	0.224009	0.099891	0.245272	24.0332	500.713	1122.87	1229.45	-65.9668	0.0000000E+000	0.0000000E+000	0.0000000E+000	65.9668	0.0000000E+000	0.0000000E+000	0.0000000E+000	-65.9668	0.0000000E+000	0.0000000E+000	0.0000000E+000	-24.0332	0.0000000E+000	0.0000000E+000	0.0000000E+000	24.0332	2.24254	65.9668	-0.000119928
1589.49	9.73146	20.4311	22.6303	-64.5313	745.177	-0.000252028	-0.385399	4.90083	3.99459	2	38	0.00680924	0.00030089	0	-0.0410299	0.805932	0.599577	16.9616	2.40609e-05	3.3235e-05	1.91894e-05	1.16909e-05	1.24771e-05	1.59494e-05	0.642975	0.224146	10.2551	1.10739e-06	6.10245e-07	5.94889e-07	1.05749e-06	5.87869e-07	1.84955e-07	0.0190019	0.0398942	0.0441885	64.5313	3994.59	1902.65	4424.57	-25.4687	0.0000000E+000	0.0000000E+000	0.0000000E+000	25.4687	0.0000000E+000	0.0000000E+000	0.0000000E+000	-25.4687	0.0000000E+000	0.0000000E+000	0.0000000E+000	-64.5313	0.0000000E+000	0.0000000E+000	0.0000000E+000	64.5313	0.476306	25.4687	-0.000117476
79.6177	108.522	158.035	191.708	-55.5228	759.783	-0.000194727	-0.383064	12.6491	8.59574	2	39	0.00660352	3.44457e-05	0	-0.0425625	0.868131	0.599001	16.8146	1.5201e-05	2.94723e-05	2.52581e-05	2.58832e-05	9.03287e-06	1.95001e-05	2.06659	1.11706	40.6335	2.85309e-07	3.8028e-07	2.15344e-07	2.21689e-07	2.76194e-07	2.02554e-07	0.00295282	0.00430004	0.00521627	55.5228	8595.74	5902.65	10427.3	-34.4772	0.0000000E+000	0.0000000E+000	0.0000000E+000	34.4772	0.0000000E+000	0.0000000E+000	0.0000000E+000	-34.4772	0.0000000E+000	0.0000000E+000	0.0000000E+000	-55.5228	0.0000000E+000	0.0000000E+000	0.0000000E+000	55.5228	0.686695	34.4772	-0.000112818
3.98597	646.991	684.747	942.06	-46.624	775.827	-0.000196605	-0.380712	58.3117	30.8077	2	40	0.00658189	6.9867e-06	0	-0.0442458	0.909232	0.489223	16.1329	2.01127e-05	2.32344e-05	2.20921e-05	1.98526e-05	2.46277e-05	2.48103e-05	4.52641	18.0328	20.9945	2.51362e-07	1.40902e-07	1.05356e-07	4.91111e-08	4.77159e-08	4.56861e-08	0.000729023	0.000771567	0.0010615	46.624	30807.7	29109	42384.6	-43.376	0.0000000E+000	0.0000000E+000	0.0000000E+000	43.376	0.0000000E+000	0.0000000E+000	0.0000000E+000	-43.376	0.0000000E+000	0.0000000E+000	0.0000000E+000	-46.624	0.0000000E+000	0.0000000E+000	0.0000000E+000	46.624	0.944861	43.376	-0.000202674
0.199573	2712.81	457.154	2751.06	-9.56542	921.519	-0.0002302	-0.380433	1744.43	48.1702	2	40	0.00658687	2.3943e-06	0	-0.0596384	0.198298	0.123749	3.43093	5.02848e-06	5.26311e-06	3.88526e-06	3.80318e-06	5.13687e-06	6.70079e-06	45.1396	33.7544	71.0461	3.99448e-07	5.21342e-07	3.84439e-07	4.13601e-07	3.70522e-07	2.88408e-07	0.000358442	6.04034e-05	0.000363496	9.56542	48170.2	285849	289879	-80.4346	0.0000000E+000	0.0000000E+000	0.0000000E+000	80.4346	0.0000000E+000	0.0000000E+000	0.0000000E+000	-80.4346	0.0000000E+000	0.0000000E+000	0.0000000E+000	-9.56542	0.0000000E+000	0.0000000E+000	0.0000000E+000	9.56542	5.93413	80.4346	-0.00326378
50326.6	3.61718	1.20014	3.81108	-18.3553	1083.14	-0.000124396	-0.380369	2.63506	0.261312	3	38	0.00723534	0.0018985	0	-0.0766627	0.726488	0.411926	15.2978	1.33272e-05	1.38495e-05	1.98394e-05	1.54882e-05	3.2872e-05	1.81287e-05	0.0943079	0.0602226	1.55411	4.20149e-07	5.09866e-07	1.15439e-06	6.28538e-07	5.63541e-07	6.81553e-07	0.249043	0.0826299	0.262393	18.3553	261.312	787.584	829.803	-71.6447	0.0000000E+000	0.0000000E+000	0.0000000E+000	71.6447	0.0000000E+000	0.0000000E+000	0.0000000E+000	-71.6447	0.0000000E+000	0.0000000E+000	0.0000000E+000	-18.3553	0.0000000E+000	0.0000000E+000	0.0000000E+000	18.3553	3.01396	71.6447	-0.000118662
2519.19	7.35473	14.2068	15.9977	-62.6298	1098.24	-0.000255645	-0.380386	4.44696	3.50705	3	38	0.00707874	0.000442486	0	-0.0782332	0.726226	0.433631	14.8598	1.90982e-05	1.32302e-05	2.72709e-05	2.32627e-05	1.73892e-05	1.63366e-05	0.628005	0.223479	6.73696	2.23762e-06	9.749e-07	5.92124e-07	7.68725e-07	5.52285e-07	5.29037e-07	0.0287379	0.0555115	0.0625092	62.6298	3507.05	1815.57	3949.14	-27.3702	0.0000000E+000	0.0000000E+000	0.0000000E+000	27.3702	0.0000000E+000	0.0000000E+000	0.0000000E+000	-27.3702	0.0000000E+000	0.0000000E+000	0.0000000E+000	-62.6298	0.0000000E+000	0.0000000E+000	0.0000000E+000	62.6298	0.517691	27.3702	-0.000138552
126.171	77.8461	122.494	145.137	-57.5637	1112.88	-0.000204066	-0.379034	10.2978	7.3353	3	39	0.00663364	4.5706e-05	0	-0.0797591	0.883066	0.448579	17.135	2.50415e-05	2.49635e-05	1.7952e-05	2.17525e-05	2.7674e-05	1.4288e-05	1.61415	0.989518	31.0482	3.15912e-07	2.89969e-07	2.64511e-07	3.157e-07	2.32993e-07	2.42752e-07	0.00369555	0.0058151	0.00689003	57.5637	7335.3	4661.64	8691.23	-32.4363	0.0000000E+000	0.0000000E+000	0.0000000E+000	32.4363	0.0000000E+000	0.0000000E+000	0.0000000E+000	-32.4363	0.0000000E+000	0.0000000E+000	0.0000000E+000	-57.5637	0.0000000E+000	0.0000000E+000	0.0000000E+000	57.5637	0.635508	32.4363	-0.000115065
6.31569	528.149	468.663	706.106	-41.5849	1127.57	-0.000230182	-0.377803	53.7699	23.6876	3	40	0.00659403	9.33858e-06	0	-0.0812862	1.12057	0.854197	22.5479	1.42867e-05	3.10738e-05	3.18331e-05	4.44901e-05	2.26826e-05	2.15501e-05	3.33833	10.4631	21.259	2.35988e-07	1.47224e-07	8.29707e-08	5.80696e-08	5.20047e-08	4.63232e-08	0.00105929	0.000939984	0.00141622	41.5849	23687.6	26694.1	35688.6	-48.4151	0.0000000E+000	0.0000000E+000	0.0000000E+000	48.4151	0.0000000E+000	0.0000000E+000	0.0000000E+000	-48.4151	0.0000000E+000	0.0000000E+000	0.0000000E+000	-41.5849	0.0000000E+000	0.0000000E+000	0.0000000E+000	41.5849	1.12693	48.4151	-0.000143642
0.316193	2544.79	350.28	2568.78	-7.83728	1221.27	-0.00021968	-0.3776	1436.99	26.7195	3	40	0.0065893	2.56515e-06	0	-0.0911062	0.247078	0.113648	4.2463	6.795e-06	4.22478e-06	8.7579e-06	7.55318e-06	5.83931e-06	3.24152e-06	46.6111	30.0288	59.1623	5.78539e-07	5.02423e-07	4.48812e-07	4.66567e-07	3.72286e-07	2.96795e-07	0.000385653	5.30836e-05	0.00038929	7.83728	26719.5	194118	195948	-82.1627	0.0000000E+000	0.0000000E+000	0.0000000E+000	82.1627	0.0000000E+000	0.0000000E+000	0.0000000E+000	-82.1627	0.0000000E+000	0.0000000E+000	0.0000000E+000	-7.83728	0.0000000E+000	0.0000000E+000	0.0000000E+000	7.83728	7.26502	82.1627	-0.00205706
0.0999518	2476.66	-52.7162	2477.22	1.21937	1425.86	-0.000209205	-0.376192	-30205.5	-13.6787	3	40	0.00658493	2.65819e-06	0	-0.112504	0.184374	0.111058	2.53692	5.86826e-06	5.27986e-06	3.92269e-06	5.73775e-06	1.62215e-06	4.0897e-06	38.9406	17.5736	73.028	3.25742e-07	4.1931e-07	5.70641e-07	3.96815e-07	2.90702e-07	2.91441e-07	0.000403587	-8.59043e-06	0.000403678	-1.21937	-13678.7	642639	642784	-91.2194	0.0000000E+000	0.0000000E+000	0.0000000E+000	91.2194	0.0000000E+000	0.0000000E+000	0.0000000E+000	-91.2194	0.0000000E+000	0.0000000E+000	0.0000000E+000	1.21937	0.0000000E+000	0.0000000E+000	0.0000000E+000	-1.21937	46.981	88.7806	-0.00641249