File: Python/Data/RDE/240223-OCV-EIS-Fe2Fe3_5mM-HCl1M-1225RPM-Ag_AgCl_BLF8-GC-RDE-1minRestVSEoc-3ppf-14p1mVAmplitude_03_OCV_C15.mpt
EC-Lab ASCII FILE
Nb header lines : 47

Open Circuit Voltage

Run on channel : 15 (SN 19485)
User :
Electrode connection : standard
Potential control : Ewe
Ewe ctrl range : min = -1.00 V, max = 1.00 V
Ewe,I filtering : 50 kHz
Safety Limits :
	Do not start on E overload
Channel : Floating
Acquisition started on : 02/23/2024 14:49:54.683
Loaded Setting File :  NONE
Saved on :
	File : 240223-OCV-EIS-Fe2Fe3_5mM-HCl1M-1225RPM-Ag_AgCl_BLF8-GC-RDE-1minRestVSEoc-3ppf-14p1mVAmplitude_03_OCV_C15.mpr
	Directory : C:\Data\mathias\RDE-RPM-variation\
	Host : 192.168.0.1
Device : VMP-300 (SN 0826)
Address : USB
EC-Lab for windows v11.52 (software)
Internet server v11.52 (firmware)
Command interpretor v11.52 (firmware)
Electrode material :
Initial state :
Electrolyte :
Comments :
Cable : special
Reference electrode : SCE Saturated Calomel Electrode (0.241 V)
Electrode surface area : 0.001 cm²
Characteristic mass : 0.001 g
Equivalent Weight : 0.000 g/eq.
Density : 0.000 g/cm3
Volume (V) : 0.001 cm³
Record EIS quality indicators
Cycle Definition : Charge/Discharge alternance
tR (h:m:s)          0:01:0.0000
dER/dt (mV/h)       1.0
record              <Ewe>
dER (mV)            0.00
dtR (s)             0.5000
E range min (V)     -1.000
E range max (V)     1.000

mode	error	time/s	<Ewe/V>
3	0	479.747	0.458724
3	0	480.247	0.459637
3	0	480.747	0.459783
3	0	481.247	0.459827
3	0	481.747	0.459843
3	0	482.247	0.459855
3	0	482.747	0.459855
3	0	483.247	0.459853
3	0	483.747	0.459849
3	0	484.247	0.459848
3	0	484.747	0.459848
3	0	485.247	0.459846
3	0	485.747	0.459847
3	0	486.247	0.459842
3	0	486.747	0.459841
3	0	487.247	0.45984
3	0	487.747	0.459844
3	0	488.247	0.459841
3	0	488.747	0.459839
3	0	489.247	0.459836
3	0	489.747	0.45984
3	0	490.247	0.459836
3	0	490.747	0.459836
3	0	491.247	0.45984
3	0	491.747	0.459839
3	0	492.247	0.459837
3	0	492.747	0.459835
3	0	493.247	0.459837
3	0	493.747	0.459835
3	0	494.247	0.459834
3	0	494.747	0.459832
3	0	495.247	0.459831
3	0	495.747	0.459833
3	0	496.247	0.459831
3	0	496.747	0.459836
3	0	497.247	0.459838
3	0	497.747	0.459836
3	0	498.247	0.459836
3	0	498.747	0.459835
3	0	499.247	0.459829
3	0	499.747	0.459819
3	0	500.247	0.459818
3	0	500.747	0.459818
3	0	501.247	0.459824
3	0	501.747	0.459819
3	0	502.247	0.459819
3	0	502.747	0.459818
3	0	503.247	0.459821
3	0	503.747	0.459816
3	0	504.247	0.459812
3	0	504.747	0.459817
3	0	505.247	0.459816
3	0	505.747	0.459816
3	0	506.247	0.459813
3	0	506.747	0.459812
3	0	507.247	0.459809
3	0	507.747	0.459812
3	0	508.247	0.459815
3	0	508.747	0.459811
3	0	509.247	0.459812
3	0	509.747	0.459813
3	0	510.247	0.459811
3	0	510.747	0.459813
3	0	511.247	0.459815
3	0	511.747	0.459816
3	0	512.247	0.459812
3	0	512.747	0.459812
3	0	513.247	0.459815
3	0	513.747	0.459813
3	0	514.247	0.459818
3	0	514.747	0.45981
3	0	515.247	0.459809
3	0	515.747	0.459808
3	0	516.247	0.459813
3	0	516.747	0.459814
3	0	517.247	0.459813
3	0	517.747	0.459808
3	0	518.247	0.459809
3	0	518.747	0.459813
3	0	519.247	0.45981
3	0	519.747	0.45981
3	0	520.247	0.459812
3	0	520.747	0.459812
3	0	521.247	0.459813
3	0	521.747	0.459815
3	0	522.247	0.459816
3	0	522.747	0.45981
3	0	523.247	0.459809
3	0	523.747	0.459812
3	0	524.247	0.459813
3	0	524.747	0.459816
3	0	525.247	0.459814
3	0	525.747	0.459824
3	0	526.247	0.459822
3	0	526.747	0.459824
3	0	527.247	0.459826
3	0	527.747	0.459826
3	0	528.247	0.459821
3	0	528.747	0.459822
3	0	529.247	0.459816
3	0	529.747	0.459816
3	0	530.247	0.459817
3	0	530.747	0.459818
3	0	531.247	0.459813
3	0	531.747	0.459814
3	0	532.247	0.459819
3	0	532.747	0.459815
3	0	533.247	0.459815
3	0	533.747	0.459809
3	0	534.247	0.459808
3	0	534.747	0.459808
3	0	535.247	0.459808
3	0	535.747	0.459808
3	0	535.983	0.459807