File: Python/Data/RDE/240223-OCV-EIS-Fe2Fe3_5mM-HCl1M-625RPM-Ag_AgCl_BLF8-GC-RDE-1minRestVSEoc-3ppf-14p1mVAmplitude_02_PEIS_C15.mpt
EC-Lab ASCII FILE
Nb header lines : 67

Potentio Electrochemical Impedance Spectroscopy

Run on channel : 15 (SN 19485)
User :
Electrode connection : standard
Potential control : Ewe
Ewe ctrl range : min = -1.00 V, max = 1.00 V
Ewe,I filtering : 50 kHz
Safety Limits :
	Do not start on E overload
Channel : Floating
Acquisition started on : 02/23/2024 15:19:09.853
Loaded Setting File :  NONE
Saved on :
	File : 240223-OCV-EIS-Fe2Fe3_5mM-HCl1M-625RPM-Ag_AgCl_BLF8-GC-RDE-1minRestVSEoc-3ppf-14p1mVAmplitude_02_PEIS_C15.mpr
	Directory : C:\Data\mathias\RDE-RPM-variation\
	Host : 192.168.0.1
Device : VMP-300 (SN 0826)
Address : USB
EC-Lab for windows v11.52 (software)
Internet server v11.52 (firmware)
Command interpretor v11.52 (firmware)
Electrode material :
Initial state :
Electrolyte :
Comments :
Cable : special
Reference electrode : SCE Saturated Calomel Electrode (0.241 V)
Electrode surface area : 0.001 cm²
Characteristic mass : 0.001 g
Equivalent Weight : 0.000 g/eq.
Density : 0.000 g/cm3
Volume (V) : 0.001 cm³
Record EIS quality indicators
Cycle Definition : Charge/Discharge alternance
Mode                Single sine
E (V)               0.0000
vs.                 Eoc
tE (h:m:s)          0:01:0.0000
record              0
dI                  0.000
unit dI             mA
dt (s)              0.000
fi                  1.000
unit fi             MHz
ff                  100.000
unit ff             mHz
Nd                  10
Points              per decade
spacing             Logarithmic
Va (mV)             14.1
pw                  0.10
Na                  3
corr                0
E range min (V)     -1.000
E range max (V)     1.000
I Range             Auto
Bandwidth           8
nc cycles           0
goto Ns'            0
nr cycles           0
inc. cycle          1

freq/Hz	Re(Z)/Ohm	-Im(Z)/Ohm	|Z|/Ohm	Phase(Z)/deg	time/s	<Ewe>/V	<I>/mA	Cs/µF	Cp/µF	cycle number	I Range	|Ewe|/V	|I|/A	Ns	(Q-Qo)/mA.h	THD Ewe/%	NSD Ewe/%	NSR Ewe/%	|Ewe h2|/V	|Ewe h3|/V	|Ewe h4|/V	|Ewe h5|/V	|Ewe h6|/V	|Ewe h7|/V	THD I/%	NSD I/%	NSR I/%	|I h2|/A	|I h3|/A	|I h4|/A	|I h5|/A	|I h6|/A	|I h7|/A	Re(Y)/Ohm-1	Im(Y)/Ohm-1	|Y|/Ohm-1	Phase(Y)/deg	Re(C)/nF	Im(C)/nF	|C|/nF	Phase(C)/deg	Re(M)	Im(M)	|M|	Phase(M)/deg	Re(Permittivity)	Im(Permittivity)	|Permittivity|	Phase(Permittivity)/deg	Re(Resistivity)/Ohm.cm	Im(Resistivity)/Ohm.cm	|Resistivity|/Ohm.cm	Phase(Resistivity)/deg	Re(Conductivity)/mS/cm	Im(Conductivity)/mS/cm	|Conductivity|/mS/cm	Phase(Conductivity)/deg	Tan(Delta)	Loss Angle(Delta)/deg	dq/mA.h
1.00002e+06	3.51704	4.07844	5.38547	-49.2271	119.763	0.459534	-0.0107101	0.0390228	0.02238	1	38	0.0111203	0.00206487	0	-4.29984e-06	-1	-1	-1	0	0	0	0	0	0	-1	-1	-1	0	0	0	0	0	0	0.121264	0.14062	0.185685	49.2271	22.38	19.2994	29.5521	-40.7729	0.0000000E+000	0.0000000E+000	0.0000000E+000	40.7729	0.0000000E+000	0.0000000E+000	0.0000000E+000	-40.7729	0.0000000E+000	0.0000000E+000	0.0000000E+000	-49.2271	0.0000000E+000	0.0000000E+000	0.0000000E+000	49.2271	0.86235	40.7729	-4.29984e-06
316230	3.45165	1.35564	3.70832	-21.4425	125.363	0.459529	-0.00206136	0.371254	0.0496144	1	38	0.0145639	0.00392737	0	2.16445e-06	-1	-1	-1	0	0	0	0	0	0	-1	-1	-1	0	0	0	0	0	0	0.250999	0.0985804	0.269664	21.4425	49.6144	126.325	135.719	-68.5575	0.0000000E+000	0.0000000E+000	0.0000000E+000	68.5575	0.0000000E+000	0.0000000E+000	0.0000000E+000	-68.5575	0.0000000E+000	0.0000000E+000	0.0000000E+000	-21.4425	0.0000000E+000	0.0000000E+000	0.0000000E+000	21.4425	2.54613	68.5575	7.33581e-06
100004	3.42616	1.05614	3.58524	-17.1323	131.099	0.459515	-0.00245608	1.5069	0.130764	1	38	0.014585	0.00406806	0	-3.34071e-06	0.597468	0.276188	8.83457	3.02717e-05	3.32613e-05	1.57268e-05	2.27634e-05	5.06485e-05	4.03297e-05	0.0730084	0.0512369	0.703051	2.04797e-06	1.24904e-06	9.34912e-07	9.77844e-07	9.29816e-07	4.44491e-07	0.266545	0.0821644	0.278921	17.1323	130.764	424.203	443.9	-72.8677	0.0000000E+000	0.0000000E+000	0.0000000E+000	72.8677	0.0000000E+000	0.0000000E+000	0.0000000E+000	-72.8677	0.0000000E+000	0.0000000E+000	0.0000000E+000	-17.1323	0.0000000E+000	0.0000000E+000	0.0000000E+000	17.1323	3.24404	72.8677	-2.734e-06
31621.1	3.61517	2.14122	4.2017	-30.6377	136.835	0.459518	-0.00194779	2.35062	0.610455	1	38	0.0146652	0.00349031	0	-5.03699e-06	0.489105	0.331089	8.73387	2.91762e-05	2.94483e-05	4.41653e-05	2.09567e-05	1.64098e-05	2.26169e-05	0.0619309	0.0783804	0.81738	4.61481e-07	1.48948e-06	8.97075e-07	5.1869e-07	3.85383e-07	5.80584e-07	0.204776	0.121286	0.237999	30.6377	610.455	1030.67	1197.89	-59.3623	0.0000000E+000	0.0000000E+000	0.0000000E+000	59.3623	0.0000000E+000	0.0000000E+000	0.0000000E+000	-59.3623	0.0000000E+000	0.0000000E+000	0.0000000E+000	-30.6377	0.0000000E+000	0.0000000E+000	0.0000000E+000	30.6377	1.68837	59.3623	2.03591e-06
10002.2	4.21755	5.82229	7.18935	-54.0812	142.571	0.45951	-0.001622	2.73294	1.79241	1	38	0.0145802	0.00202802	0	-9.58236e-06	0.504101	0.309048	8.88659	3.23712e-05	4.09994e-05	9.26373e-06	2.60311e-05	1.66976e-05	3.05608e-05	0.23305	0.189953	1.40992	4.44071e-06	7.14177e-07	5.92006e-07	7.30371e-07	7.51909e-07	3.22424e-07	0.0815981	0.112646	0.139095	54.0812	1792.41	1298.39	2213.27	-35.9188	0.0000000E+000	0.0000000E+000	0.0000000E+000	35.9188	0.0000000E+000	0.0000000E+000	0.0000000E+000	-35.9188	0.0000000E+000	0.0000000E+000	0.0000000E+000	-54.0812	0.0000000E+000	0.0000000E+000	0.0000000E+000	54.0812	0.724379	35.9188	1.27699e-07
3163.04	6.36329	16.2057	17.4103	-68.5622	148.35	0.459384	-0.00289187	3.10489	2.69013	1	38	0.0139699	0.000802394	0	-1.1697e-05	0.488284	0.339461	9.18024	2.97118e-05	3.35414e-05	2.43305e-05	1.45603e-05	3.16934e-05	2.22464e-05	0.751339	0.14543	3.58091	5.29136e-06	2.47763e-06	6.54376e-07	9.93502e-07	5.28823e-07	4.13139e-07	0.0209928	0.0534635	0.0574373	68.5622	2690.13	1056.3	2890.08	-21.4378	0.0000000E+000	0.0000000E+000	0.0000000E+000	21.4378	0.0000000E+000	0.0000000E+000	0.0000000E+000	-21.4378	0.0000000E+000	0.0000000E+000	0.0000000E+000	-68.5622	0.0000000E+000	0.0000000E+000	0.0000000E+000	68.5622	0.392656	21.4378	-1.24026e-06
999.682	13.6617	43.9259	46.0013	-72.7234	154.133	0.459373	-0.000142044	3.62442	3.30474	1	39	0.0140883	0.000306259	0	-1.5942e-05	0.482403	0.207013	8.95107	3.46586e-05	2.18624e-05	1.7883e-05	2.97173e-05	1.48876e-05	3.05057e-05	1.16685	0.11808	4.30877	2.91081e-06	1.86501e-06	2.56544e-07	7.10514e-07	1.53239e-07	3.92154e-07	0.006456	0.0207577	0.0217385	72.7234	3304.74	1027.83	3460.89	-17.2766	0.0000000E+000	0.0000000E+000	0.0000000E+000	17.2766	0.0000000E+000	0.0000000E+000	0.0000000E+000	-17.2766	0.0000000E+000	0.0000000E+000	0.0000000E+000	-72.7234	0.0000000E+000	0.0000000E+000	0.0000000E+000	72.7234	0.311017	17.2766	-2.76142e-07
316.316	36.1322	114.252	119.83	-72.4505	159.661	0.459407	-5.05366e-05	4.40386	4.00346	1	39	0.013027	0.000108712	0	-1.63321e-05	0.50941	0.241226	9.63616	2.07261e-05	2.74607e-05	1.95889e-05	3.31949e-05	9.983e-06	3.23713e-05	1.1222	0.292442	11.9586	9.81883e-07	2.68761e-07	2.81787e-07	2.49452e-07	2.30056e-07	4.06091e-07	0.00251632	0.00795677	0.00834518	72.4505	4003.46	1266.09	4198.89	-17.5495	0.0000000E+000	0.0000000E+000	0.0000000E+000	17.5495	0.0000000E+000	0.0000000E+000	0.0000000E+000	-17.5495	0.0000000E+000	0.0000000E+000	0.0000000E+000	-72.4505	0.0000000E+000	0.0000000E+000	0.0000000E+000	72.4505	0.316249	17.5495	-1.42055e-07
99.9682	105.408	284.638	303.528	-69.6793	165.421	0.459428	-0.000104014	5.59327	4.91873	1	40	0.0130961	4.31462e-05	0	-1.65798e-05	0.750702	0.320632	15.1188	4.96651e-05	4.6647e-05	2.60002e-05	2.26964e-05	4.93047e-05	2.52243e-05	1.06295	0.138315	5.98291	3.70661e-07	1.87561e-07	3.69162e-08	1.64121e-07	7.21866e-08	3.72815e-08	0.00114413	0.00308954	0.00329459	69.6793	4918.73	1821.51	5245.17	-20.3207	0.0000000E+000	0.0000000E+000	0.0000000E+000	20.3207	0.0000000E+000	0.0000000E+000	0.0000000E+000	-20.3207	0.0000000E+000	0.0000000E+000	0.0000000E+000	-69.6793	0.0000000E+000	0.0000000E+000	0.0000000E+000	69.6793	0.370322	20.3207	-9.83194e-09
31.6296	326.144	664.676	740.381	-63.8637	170.748	0.459458	-0.000139164	7.57036	6.10135	1	40	0.0129003	1.74239e-05	0	-1.66497e-05	0.8727	0.769131	15.875	6.16461e-05	2.83402e-05	4.76179e-05	3.08761e-05	3.84235e-05	4.51724e-05	1.28205	0.71776	15.2259	1.64218e-07	8.29666e-08	4.13124e-08	6.37947e-08	4.41953e-08	6.38656e-08	0.000594974	0.00121255	0.00135066	63.8637	6101.35	2993.82	6796.28	-26.1363	0.0000000E+000	0.0000000E+000	0.0000000E+000	26.1363	0.0000000E+000	0.0000000E+000	0.0000000E+000	-26.1363	0.0000000E+000	0.0000000E+000	0.0000000E+000	-63.8637	0.0000000E+000	0.0000000E+000	0.0000000E+000	63.8637	0.490681	26.1363	-1.48677e-08
9.99682	1010.06	1312.11	1655.86	-52.4111	176.449	0.459441	-9.97354e-05	12.1335	7.61875	1	41	0.0128922	7.78584e-06	0	-1.67663e-05	1.00012	0.381915	19.233	5.00478e-05	3.06691e-05	5.65122e-05	3.25875e-05	5.86896e-05	5.19213e-05	0.913077	0.167575	6.2507	5.45568e-08	2.78021e-08	6.68419e-09	3.0189e-08	1.33371e-08	8.96064e-09	0.000368384	0.000478548	0.000603916	52.4111	7618.75	5864.88	9614.69	-37.5889	0.0000000E+000	0.0000000E+000	0.0000000E+000	37.5889	0.0000000E+000	0.0000000E+000	0.0000000E+000	-37.5889	0.0000000E+000	0.0000000E+000	0.0000000E+000	-52.4111	0.0000000E+000	0.0000000E+000	0.0000000E+000	52.4111	0.769796	37.5889	-2.45915e-08
3.16296	2461.81	1650.16	2963.71	-33.8341	184.89	0.45943	-9.62622e-05	30.493	9.45328	1	41	0.0128665	4.34135e-06	0	-1.69599e-05	0.471392	0.233377	8.82418	1.64929e-05	1.8767e-05	3.17889e-05	2.91918e-05	2.46372e-05	1.78481e-05	0.930843	0.201685	5.30653	3.43659e-08	1.68018e-08	5.38407e-09	8.80635e-09	5.35601e-09	4.47408e-09	0.000280275	0.000187869	0.000337415	33.8341	9453.28	14103	16978.2	-56.1659	0.0000000E+000	0.0000000E+000	0.0000000E+000	56.1659	0.0000000E+000	0.0000000E+000	0.0000000E+000	-56.1659	0.0000000E+000	0.0000000E+000	0.0000000E+000	-33.8341	0.0000000E+000	0.0000000E+000	0.0000000E+000	33.8341	1.49186	56.1659	-4.4563e-08
1.00006	3722.51	1161.24	3899.43	-17.3253	208.64	0.459411	-0.000102353	137.048	12.1538	1	42	0.0128742	3.30156e-06	0	-1.77208e-05	0.227132	0.115209	4.79249	1.17493e-05	8.01758e-06	8.5782e-06	1.01182e-05	1.02928e-05	1.61823e-05	0.758244	0.0511642	1.11179	2.25584e-08	1.00336e-08	5.63061e-10	3.98048e-09	4.90839e-10	5.9022e-10	0.000244812	7.63692e-05	0.000256448	17.3253	12153.8	38960.7	40812.4	-72.6747	0.0000000E+000	0.0000000E+000	0.0000000E+000	72.6747	0.0000000E+000	0.0000000E+000	0.0000000E+000	-72.6747	0.0000000E+000	0.0000000E+000	0.0000000E+000	-17.3253	0.0000000E+000	0.0000000E+000	0.0000000E+000	17.3253	3.20565	72.6747	-1.88558e-07
0.316193	4324.47	628.487	4369.9	-8.26905	274.436	0.459434	-9.59657e-05	800.888	16.5661	1	42	0.0128723	2.94566e-06	0	-1.92191e-05	0.152236	0.0697344	2.56977	5.17971e-06	8.20687e-06	8.19568e-06	5.94523e-06	7.83555e-06	7.67526e-06	0.776747	0.029808	1.30105	2.09489e-08	8.7744e-09	2.90288e-10	2.71096e-09	1.52321e-10	3.61469e-10	0.000226459	3.29119e-05	0.000228838	8.26905	16566.1	113988	115185	-81.731	0.0000000E+000	0.0000000E+000	0.0000000E+000	81.731	0.0000000E+000	0.0000000E+000	0.0000000E+000	-81.731	0.0000000E+000	0.0000000E+000	0.0000000E+000	-8.26905	0.0000000E+000	0.0000000E+000	0.0000000E+000	8.26905	6.88077	81.731	-5.42354e-07
0.0999518	4573.84	280.593	4582.44	-3.51055	479.018	0.45943	-9.90519e-05	5674.82	21.2772	1	42	0.0128657	2.8076e-06	0	-2.38725e-05	0.123018	0.0479495	1.53759	2.79241e-06	9.67222e-06	4.41868e-06	8.60654e-06	5.00321e-06	3.2639e-06	0.796609	0.0300726	1.37028	2.07613e-08	8.0089e-09	2.21441e-10	2.20305e-09	2.70358e-10	1.78455e-10	0.000217815	1.33624e-05	0.000218224	3.51055	21277.2	346830	347483	-86.4894	0.0000000E+000	0.0000000E+000	0.0000000E+000	86.4894	0.0000000E+000	0.0000000E+000	0.0000000E+000	-86.4894	0.0000000E+000	0.0000000E+000	0.0000000E+000	-3.51055	0.0000000E+000	0.0000000E+000	0.0000000E+000	3.51055	16.3006	86.4894	-8.44031e-07