File: Python/Data/RDE/240223-OCV-EIS-Fe2Fe3_5mM-HCl1M-2000RPM-Ag_AgCl_BLF8-GC-RDE-1minRestVSEoc-3ppf-14p1mVAmplitude_03_OCV_C15.mpt
EC-Lab ASCII FILE
Nb header lines : 47

Open Circuit Voltage

Run on channel : 15 (SN 19485)
User :
Electrode connection : standard
Potential control : Ewe
Ewe ctrl range : min = -1.00 V, max = 1.00 V
Ewe,I filtering : 50 kHz
Safety Limits :
	Do not start on E overload
Channel : Floating
Acquisition started on : 02/23/2024 14:14:06.635
Loaded Setting File :  NONE
Saved on :
	File : 240223-OCV-EIS-Fe2Fe3_5mM-HCl1M-2000RPM-Ag_AgCl_BLF8-GC-RDE-1minRestVSEoc-3ppf-14p1mVAmplitude_03_OCV_C15.mpr
	Directory : C:\Data\mathias\RDE-RPM-variation\
	Host : 192.168.0.1
Device : VMP-300 (SN 0826)
Address : USB
EC-Lab for windows v11.52 (software)
Internet server v11.52 (firmware)
Command interpretor v11.52 (firmware)
Electrode material :
Initial state :
Electrolyte :
Comments :
Cable : special
Reference electrode : SCE Saturated Calomel Electrode (0.241 V)
Electrode surface area : 0.001 cm²
Characteristic mass : 0.001 g
Equivalent Weight : 0.000 g/eq.
Density : 0.000 g/cm3
Volume (V) : 0.001 cm³
Record EIS quality indicators
Cycle Definition : Charge/Discharge alternance
tR (h:m:s)          0:01:0.0000
dER/dt (mV/h)       1.0
record              <Ewe>
dER (mV)            0.00
dtR (s)             0.5000
E range min (V)     -1.000
E range max (V)     1.000

mode	error	time/s	<Ewe/V>
3	0	482.95	0.460972
3	0	483.45	0.4601
3	0	483.95	0.459952
3	0	484.45	0.459906
3	0	484.95	0.459884
3	0	485.45	0.459871
3	0	485.95	0.459865
3	0	486.45	0.459864
3	0	486.95	0.45986
3	0	487.45	0.459856
3	0	487.95	0.459854
3	0	488.45	0.459856
3	0	488.95	0.459853
3	0	489.45	0.459852
3	0	489.95	0.45985
3	0	490.45	0.45985
3	0	490.95	0.459851
3	0	491.45	0.459848
3	0	491.95	0.459848
3	0	492.45	0.459845
3	0	492.95	0.459842
3	0	493.45	0.459841
3	0	493.95	0.45984
3	0	494.45	0.459842
3	0	494.95	0.459841
3	0	495.45	0.459838
3	0	495.95	0.459838
3	0	496.45	0.459835
3	0	496.95	0.459836
3	0	497.45	0.459839
3	0	497.95	0.459838
3	0	498.45	0.459836
3	0	498.95	0.459837
3	0	499.45	0.459841
3	0	499.95	0.45984
3	0	500.45	0.459842
3	0	500.95	0.45984
3	0	501.45	0.45984
3	0	501.95	0.459837
3	0	502.45	0.459837
3	0	502.95	0.459839
3	0	503.45	0.459839
3	0	503.95	0.459839
3	0	504.45	0.459837
3	0	504.95	0.459836
3	0	505.45	0.459837
3	0	505.95	0.459838
3	0	506.45	0.459836
3	0	506.95	0.459832
3	0	507.45	0.459834
3	0	507.95	0.459833
3	0	508.45	0.459832
3	0	508.95	0.459835
3	0	509.45	0.459838
3	0	509.95	0.459836
3	0	510.45	0.459834
3	0	510.95	0.459833
3	0	511.45	0.459837
3	0	511.95	0.459838
3	0	512.45	0.459836
3	0	512.95	0.459837
3	0	513.45	0.459834
3	0	513.95	0.459832
3	0	514.45	0.459832
3	0	514.95	0.459833
3	0	515.45	0.45983
3	0	515.95	0.459829
3	0	516.45	0.459828
3	0	516.95	0.459833
3	0	517.45	0.459833
3	0	517.95	0.459831
3	0	518.45	0.45983
3	0	518.95	0.459829
3	0	519.45	0.459829
3	0	519.95	0.459829
3	0	520.45	0.459828
3	0	520.95	0.459829
3	0	521.45	0.459826
3	0	521.95	0.459824
3	0	522.45	0.459829
3	0	522.95	0.459828
3	0	523.45	0.459828
3	0	523.95	0.459828
3	0	524.45	0.459827
3	0	524.95	0.459825
3	0	525.45	0.459822
3	0	525.95	0.459823
3	0	526.45	0.459826
3	0	526.95	0.459827
3	0	527.45	0.459827
3	0	527.95	0.459825
3	0	528.45	0.459824
3	0	528.95	0.459827
3	0	529.45	0.459827
3	0	529.95	0.459828
3	0	530.45	0.459826
3	0	530.95	0.459827
3	0	531.45	0.459829
3	0	531.95	0.459825
3	0	532.45	0.459828
3	0	532.95	0.459824
3	0	533.45	0.459825
3	0	533.95	0.459826
3	0	534.45	0.459825
3	0	534.95	0.459825
3	0	535.45	0.459827
3	0	535.95	0.459825
3	0	536.45	0.459824
3	0	536.95	0.459827
3	0	537.45	0.459826
3	0	537.95	0.459825
3	0	538.45	0.459824
3	0	538.95	0.459826
3	0	539.45	0.459823
3	0	539.95	0.459824
3	0	540.45	0.459821
3	0	540.95	0.459823
3	0	541.45	0.459823
3	0	541.95	0.459824
3	0	542.45	0.459821
3	0	542.609	0.459821