File: Python/Data/RDE/240223-OCV-EIS-Fe2Fe3_5mM-HCl1M-0RPM-Ag_AgCl_BLF8-GC-RDE-5minVsOCV-5ppf-3scans-14p1mVAmplitude-1MHz_100mHz_02_PEIS_C15.mpt
EC-Lab ASCII FILE
Nb header lines : 67

Potentio Electrochemical Impedance Spectroscopy

Run on channel : 15 (SN 19485)
User :
Electrode connection : standard
Potential control : Ewe
Ewe ctrl range : min = -1.00 V, max = 1.00 V
Ewe,I filtering : 50 kHz
Safety Limits :
	Do not start on E overload
Channel : Floating
Acquisition started on : 02/23/2024 11:36:28.401
Loaded Setting File :  NONE
Saved on :
	File : 240223-OCV-EIS-Fe2Fe3_5mM-HCl1M-0RPM-Ag_AgCl_BLF8-GC-RDE-5minVsOCV-5ppf-3scans-14p1mVAmplitude-1MHz_100mHz_02_PEIS_C15.mpr
	Directory : C:\Data\mathias\RDE-RPM-variation\
	Host : 192.168.0.1
Device : VMP-300 (SN 0826)
Address : USB
EC-Lab for windows v11.52 (software)
Internet server v11.52 (firmware)
Command interpretor v11.52 (firmware)
Electrode material :
Initial state :
Electrolyte :
Comments :
Cable : special
Reference electrode : SCE Saturated Calomel Electrode (0.241 V)
Electrode surface area : 0.001 cm²
Characteristic mass : 0.001 g
Equivalent Weight : 0.000 g/eq.
Density : 0.000 g/cm3
Volume (V) : 0.001 cm³
Record EIS quality indicators
Cycle Definition : Charge/Discharge alternance
Mode                Single sine
E (V)               0.0000
vs.                 Ref
tE (h:m:s)          0:05:0.0000
record              0
dI                  0.000
unit dI             mA
dt (s)              0.000
fi                  1.000
unit fi             MHz
ff                  100.000
unit ff             mHz
Nd                  10
Points              per decade
spacing             Logarithmic
Va (mV)             14.1
pw                  0.10
Na                  5
corr                0
E range min (V)     -1.000
E range max (V)     1.000
I Range             Auto
Bandwidth           8
nc cycles           2
goto Ns'            0
nr cycles           0
inc. cycle          1

freq/Hz	Re(Z)/Ohm	-Im(Z)/Ohm	|Z|/Ohm	Phase(Z)/deg	time/s	<Ewe>/V	<I>/mA	Cs/µF	Cp/µF	cycle number	I Range	|Ewe|/V	|I|/A	Ns	(Q-Qo)/mA.h	THD Ewe/%	NSD Ewe/%	NSR Ewe/%	|Ewe h2|/V	|Ewe h3|/V	|Ewe h4|/V	|Ewe h5|/V	|Ewe h6|/V	|Ewe h7|/V	THD I/%	NSD I/%	NSR I/%	|I h2|/A	|I h3|/A	|I h4|/A	|I h5|/A	|I h6|/A	|I h7|/A	Re(Y)/Ohm-1	Im(Y)/Ohm-1	|Y|/Ohm-1	Phase(Y)/deg	Re(C)/nF	Im(C)/nF	|C|/nF	Phase(C)/deg	Re(M)	Im(M)	|M|	Phase(M)/deg	Re(Permittivity)	Im(Permittivity)	|Permittivity|	Phase(Permittivity)/deg	Re(Resistivity)/Ohm.cm	Im(Resistivity)/Ohm.cm	|Resistivity|/Ohm.cm	Phase(Resistivity)/deg	Re(Conductivity)/mS/cm	Im(Conductivity)/mS/cm	|Conductivity|/mS/cm	Phase(Conductivity)/deg	Tan(Delta)	Loss Angle(Delta)/deg	dq/mA.h
1.00002e+06	4.16867	3.97429	5.75958	-43.6326	363.398	-0.000162795	-0.0224887	0.0400454	0.0190673	1	38	0.0116598	0.00202441	0	-0.00184423	-1	-1	-1	0	0	0	0	0	0	-1	-1	-1	0	0	0	0	0	0	0.125665	0.119806	0.173624	43.6326	19.0673	19.9999	27.6326	-46.3674	0.0000000E+000	0.0000000E+000	0.0000000E+000	46.3674	0.0000000E+000	0.0000000E+000	0.0000000E+000	-46.3674	0.0000000E+000	0.0000000E+000	0.0000000E+000	-43.6326	0.0000000E+000	0.0000000E+000	0.0000000E+000	43.6326	1.04891	46.3674	-0.00184423
39814.1	3.98968	1.84195	4.39435	-24.7818	388.649	-0.000157352	-0.0236226	2.17022	0.381305	1	38	0.0146362	0.00333069	0	-0.00202215	0.522693	0.277539	8.99146	2.62857e-05	3.12323e-05	2.54309e-05	2.62453e-05	1.70237e-05	4.01718e-05	0.0582705	0.0768359	0.86403	7.30148e-07	8.2974e-07	7.78268e-07	6.72791e-07	7.11503e-07	6.20241e-07	0.206609	0.095387	0.227565	24.7818	381.305	825.908	909.68	-65.2182	0.0000000E+000	0.0000000E+000	0.0000000E+000	65.2182	0.0000000E+000	0.0000000E+000	0.0000000E+000	-65.2182	0.0000000E+000	0.0000000E+000	0.0000000E+000	-24.7818	0.0000000E+000	0.0000000E+000	0.0000000E+000	24.7818	2.166	65.2182	-9.70417e-06
1584.49	9.5429	32.2543	33.6364	-73.5184	414.309	-0.000285693	-0.022014	3.11417	2.86351	1	38	0.0131827	0.000391919	0	-0.0021899	0.547544	0.258279	9.88516	2.11456e-05	2.36768e-05	2.98107e-05	3.65795e-05	2.86664e-05	2.4195e-05	0.602679	0.254973	7.40979	1.30156e-06	1.12576e-06	6.21886e-07	9.63903e-07	5.6489e-07	6.19797e-07	0.00843454	0.0285081	0.0297297	73.5184	2863.51	847.211	2986.21	-16.4816	0.0000000E+000	0.0000000E+000	0.0000000E+000	16.4816	0.0000000E+000	0.0000000E+000	0.0000000E+000	-16.4816	0.0000000E+000	0.0000000E+000	0.0000000E+000	-73.5184	0.0000000E+000	0.0000000E+000	0.0000000E+000	73.5184	0.295864	16.4816	-1.12537e-05
63.0823	159.679	468.727	495.179	-71.1878	440.308	-0.000313785	-0.0181156	5.38261	4.8229	1	40	0.0129359	2.61238e-05	0	-0.00232163	0.807326	0.465714	14.8485	3.01414e-05	4.43809e-05	3.79278e-05	4.09106e-05	3.30892e-05	5.01225e-05	0.791838	0.26966	9.83142	1.33872e-07	9.07982e-08	5.13016e-08	7.43314e-08	4.97291e-08	6.83488e-08	0.000651213	0.00191159	0.00201947	71.1878	4822.9	1642.99	5095.08	-18.8122	0.0000000E+000	0.0000000E+000	0.0000000E+000	18.8122	0.0000000E+000	0.0000000E+000	0.0000000E+000	-18.8122	0.0000000E+000	0.0000000E+000	0.0000000E+000	-71.1878	0.0000000E+000	0.0000000E+000	0.0000000E+000	71.1878	0.340665	18.8122	-8.96704e-06
2.51085	2455.23	5188.29	5739.9	-64.6753	473.353	-0.000270314	-0.0180534	12.2173	9.98194	1	41	0.0128591	2.2403e-06	0	-0.00248756	0.476025	0.202994	7.37966	1.92129e-05	2.463e-05	2.57687e-05	1.73036e-05	2.40226e-05	2.61079e-05	0.864766	0.332126	8.90245	1.4168e-08	6.53259e-09	5.0626e-09	6.14693e-09	4.16894e-09	5.6095e-09	7.45218e-05	0.000157476	0.000174219	64.6753	9981.94	4723.72	11043.2	-25.3247	0.0000000E+000	0.0000000E+000	0.0000000E+000	25.3247	0.0000000E+000	0.0000000E+000	0.0000000E+000	-25.3247	0.0000000E+000	0.0000000E+000	0.0000000E+000	-64.6753	0.0000000E+000	0.0000000E+000	0.0000000E+000	64.6753	0.473226	25.3247	-2.32259e-05
0.0999518	26280.5	43504	50825.8	-58.8641	953.014	-0.000265171	-0.0180301	36.6017	26.8158	1	41	0.0128652	2.53123e-07	0	-0.00486903	0.152858	0.0453728	1.46563	4.04923e-06	1.22902e-05	4.68478e-06	1.12118e-05	4.2585e-06	3.51573e-06	5.9669	23.4835	17.8322	1.14848e-08	5.17459e-09	5.55844e-09	3.95253e-09	2.88391e-09	3.04187e-09	1.01734e-05	1.68407e-05	1.96751e-05	58.8641	26815.8	16199.2	31328.9	-31.1359	0.0000000E+000	0.0000000E+000	0.0000000E+000	31.1359	0.0000000E+000	0.0000000E+000	0.0000000E+000	-31.1359	0.0000000E+000	0.0000000E+000	0.0000000E+000	-58.8641	0.0000000E+000	0.0000000E+000	0.0000000E+000	58.8641	0.604093	31.1359	-0.000507293
50122.5	3.94029	1.52907	4.22657	-21.2092	979.891	-0.000169208	-0.0195989	2.07664	0.271792	2	38	0.0145961	0.0034534	0	-0.00502729	0.452292	0.337817	8.9474	4.0932e-05	1.72306e-05	2.08273e-05	1.84981e-05	2.08206e-05	1.84659e-05	0.0740358	0.0297292	0.83514	1.24829e-06	1.28889e-06	1.0304e-06	1.01092e-06	6.35442e-07	6.52148e-07	0.220572	0.0855952	0.236598	21.2092	271.792	700.388	751.275	-68.7908	0.0000000E+000	0.0000000E+000	0.0000000E+000	68.7908	0.0000000E+000	0.0000000E+000	0.0000000E+000	-68.7908	0.0000000E+000	0.0000000E+000	0.0000000E+000	-21.2092	0.0000000E+000	0.0000000E+000	0.0000000E+000	21.2092	2.57693	68.7908	-8.21005e-06
1995.64	8.03197	26.1327	27.3391	-72.915	1005.53	-0.000256353	-0.0192099	3.05179	2.78838	2	38	0.013359	0.000488641	0	-0.00516605	0.50644	0.240783	9.72541	2.18751e-05	2.75737e-05	2.28873e-05	3.26866e-05	1.53188e-05	2.43276e-05	0.598764	0.17686	5.9179	1.52421e-06	1.80998e-06	5.34552e-07	1.1827e-06	6.91145e-07	6.01654e-07	0.0107462	0.0349634	0.0365776	72.915	2788.38	857.021	2917.12	-17.085	0.0000000E+000	0.0000000E+000	0.0000000E+000	17.085	0.0000000E+000	0.0000000E+000	0.0000000E+000	-17.085	0.0000000E+000	0.0000000E+000	0.0000000E+000	-72.915	0.0000000E+000	0.0000000E+000	0.0000000E+000	72.915	0.307354	17.085	-9.35971e-06
79.4157	127.629	396.168	416.219	-72.1432	1031.57	-0.00028657	-0.0174905	5.05865	4.583	2	40	0.0129865	3.12012e-05	0	-0.00529186	0.778615	0.445664	14.9875	3.67158e-05	4.82957e-05	2.78758e-05	1.99946e-05	3.11985e-05	5.51827e-05	0.695727	0.226366	8.38715	1.20461e-07	8.38669e-08	4.77918e-08	1.17579e-07	2.52905e-08	6.30125e-08	0.000736727	0.00228684	0.00240258	72.1432	4583	1476.45	4814.95	-17.8568	0.0000000E+000	0.0000000E+000	0.0000000E+000	17.8568	0.0000000E+000	0.0000000E+000	0.0000000E+000	-17.8568	0.0000000E+000	0.0000000E+000	0.0000000E+000	-72.1432	0.0000000E+000	0.0000000E+000	0.0000000E+000	72.1432	0.322159	17.8568	-8.568e-06
3.16296	2046.8	4596.32	5031.45	-65.9959	1061.77	-0.000254071	-0.017507	10.9475	9.13587	2	41	0.0128598	2.55589e-06	0	-0.00543827	0.449513	0.311865	8.64512	1.93862e-05	1.95801e-05	2.31516e-05	2.52067e-05	1.71359e-05	2.35863e-05	0.847853	0.341974	8.9202	1.67419e-08	7.67866e-09	4.12406e-09	8.02664e-09	2.56214e-09	4.60825e-09	8.08516e-05	0.000181561	0.00019875	65.9959	9135.87	4068.32	10000.8	-24.0041	0.0000000E+000	0.0000000E+000	0.0000000E+000	24.0041	0.0000000E+000	0.0000000E+000	0.0000000E+000	-24.0041	0.0000000E+000	0.0000000E+000	0.0000000E+000	-65.9959	0.0000000E+000	0.0000000E+000	0.0000000E+000	65.9959	0.445313	24.0041	-1.84886e-05
0.125939	23950.2	40882.9	47381.6	-59.6372	1444.4	-0.000245414	-0.0172284	30.9115	23.0135	2	41	0.0128645	2.71507e-07	0	-0.00729133	0.142026	0.0462474	1.56048	4.4631e-06	1.20938e-05	4.61145e-06	1.02153e-05	3.03446e-06	4.01658e-06	5.12617	18.0109	19.0307	9.36393e-09	6.29343e-09	4.03503e-09	3.43249e-09	2.61794e-09	2.57827e-09	1.06681e-05	1.82105e-05	2.11052e-05	59.6372	23013.5	13481.8	26671.7	-30.3628	0.0000000E+000	0.0000000E+000	0.0000000E+000	30.3628	0.0000000E+000	0.0000000E+000	0.0000000E+000	-30.3628	0.0000000E+000	0.0000000E+000	0.0000000E+000	-59.6372	0.0000000E+000	0.0000000E+000	0.0000000E+000	59.6372	0.585824	30.3628	-0.000387446
63093.8	3.90677	1.30207	4.11804	-18.4326	1571.14	-0.000165461	-0.0187406	1.9373	0.193682	3	38	0.0145883	0.00354254	0	-0.00790917	0.507029	0.252703	8.86689	3.06586e-05	2.36301e-05	2.36261e-05	3.25151e-05	3.52966e-05	2.46154e-05	0.0767352	0.041463	0.804174	1.39725e-06	1.47321e-06	9.13322e-07	8.06368e-07	7.31617e-07	7.73149e-07	0.230376	0.0767813	0.242834	18.4326	193.682	581.126	612.552	-71.5674	0.0000000E+000	0.0000000E+000	0.0000000E+000	71.5674	0.0000000E+000	0.0000000E+000	0.0000000E+000	-71.5674	0.0000000E+000	0.0000000E+000	0.0000000E+000	-18.4326	0.0000000E+000	0.0000000E+000	0.0000000E+000	18.4326	3.00042	71.5674	-1.28444e-05
2512.41	6.99708	21.0954	22.2256	-71.65	1596.76	-0.000285041	-0.0194817	3.0029	2.70528	3	38	0.0139229	0.000626438	0	-0.00805178	0.524003	0.25012	9.26703	2.46216e-05	1.67339e-05	2.71636e-05	3.0128e-05	2.93671e-05	2.9267e-05	0.555662	0.123095	4.59212	1.98866e-06	2.41451e-06	5.24822e-07	1.11155e-06	4.16276e-07	4.91725e-07	0.0141648	0.0427054	0.0449932	71.65	2705.28	897.306	2850.21	-18.35	0.0000000E+000	0.0000000E+000	0.0000000E+000	18.35	0.0000000E+000	0.0000000E+000	0.0000000E+000	-18.35	0.0000000E+000	0.0000000E+000	0.0000000E+000	-71.65	0.0000000E+000	0.0000000E+000	0.0000000E+000	71.65	0.331687	18.35	-1.08241e-05
99.9682	102.015	330.284	345.68	-72.8355	1622.86	-0.000249139	-0.0171413	4.82027	4.40046	3	40	0.0133615	3.86529e-05	0	-0.00817946	0.761603	0.584386	14.652	4.38676e-05	3.95929e-05	2.99692e-05	4.03291e-05	1.63536e-05	4.07533e-05	0.734497	0.197607	6.784	1.58207e-07	1.30041e-07	4.73102e-08	1.63828e-07	3.7408e-08	6.38113e-08	0.000853726	0.00276401	0.00289285	72.8355	4400.46	1359.18	4605.59	-17.1645	0.0000000E+000	0.0000000E+000	0.0000000E+000	17.1645	0.0000000E+000	0.0000000E+000	0.0000000E+000	-17.1645	0.0000000E+000	0.0000000E+000	0.0000000E+000	-72.8355	0.0000000E+000	0.0000000E+000	0.0000000E+000	72.8355	0.308872	17.1645	-8.32559e-06
3.9819	1674.15	3962.88	4302	-67.098	1651.01	-0.000231496	-0.0170287	10.086	8.55855	3	41	0.013172	3.06183e-06	0	-0.00831181	0.511312	0.309098	9.35361	3.01589e-05	1.86342e-05	2.41961e-05	1.98604e-05	2.21148e-05	3.62211e-05	0.762952	0.227021	8.31495	1.73232e-08	9.99355e-09	4.29326e-09	6.05963e-09	4.32835e-09	6.29229e-09	9.04592e-05	0.000214127	0.00023245	67.098	8558.55	3615.62	9290.93	-22.902	0.0000000E+000	0.0000000E+000	0.0000000E+000	22.902	0.0000000E+000	0.0000000E+000	0.0000000E+000	-22.902	0.0000000E+000	0.0000000E+000	0.0000000E+000	-67.098	0.0000000E+000	0.0000000E+000	0.0000000E+000	67.098	0.422457	22.9019	-1.49947e-05
0.158419	20585.5	35667.6	41181.8	-60.0087	1956.65	-0.000243591	-0.0170391	28.167	21.1289	3	41	0.0131733	3.19883e-07	0	-0.00976377	0.124037	0.0516828	1.74928	4.81209e-06	1.05318e-05	3.824e-06	8.40191e-06	3.64663e-06	3.42513e-06	5.72972	22.0276	18.7108	1.34285e-08	8.00799e-09	5.78126e-09	5.17828e-09	3.64711e-09	3.57164e-09	1.21381e-05	2.10312e-05	2.42826e-05	60.0087	21128.9	12194.5	24395.4	-29.9913	0.0000000E+000	0.0000000E+000	0.0000000E+000	29.9913	0.0000000E+000	0.0000000E+000	0.0000000E+000	-29.9913	0.0000000E+000	0.0000000E+000	0.0000000E+000	-60.0087	0.0000000E+000	0.0000000E+000	0.0000000E+000	60.0087	0.577148	29.9913	-0.000304463
0.0999518	28917.1	46238.1	54535.9	-57.9783	2139.13	-0.000258778	-0.0171301	34.4373	24.7551	3	41	0.0131705	2.41502e-07	0	-0.0106321	0.130985	0.0536541	1.44839	5.74798e-06	1.18416e-05	2.79979e-06	8.88961e-06	3.12662e-06	3.31621e-06	5.17446	18.4901	19.3081	8.96135e-09	5.16766e-09	4.44627e-09	4.19385e-09	3.03311e-09	2.71698e-09	9.72277e-06	1.55466e-05	1.83365e-05	57.9783	24755.1	15481.7	29197.6	-32.0217	0.0000000E+000	0.0000000E+000	0.0000000E+000	32.0217	0.0000000E+000	0.0000000E+000	0.0000000E+000	-32.0217	0.0000000E+000	0.0000000E+000	0.0000000E+000	-57.9783	0.0000000E+000	0.0000000E+000	0.0000000E+000	57.9783	0.625395	32.0217	-0.000484304