File: Python/Data/RDE/240219-CV-EIS-Fe2Fe3_5mM-HCl1M-624RPM-Ag_AgCl_BLF8-GC-RDE_01_CV_C15.mpt
EC-Lab ASCII FILE
Nb header lines : 60

Cyclic Voltammetry

Run on channel : 15 (SN 19485)
User :
Electrode connection : standard
Potential control : Ewe
Ewe ctrl range : min = -1.00 V, max = 1.00 V
Ewe,I filtering : <None>
Safety Limits :
	Do not start on E overload
Channel : Floating
Acquisition started on : 02/19/2024 16:22:26.579
Loaded Setting File :  C:\Data\mathias\RDE-RPM-variation\240219-CV-EIS-Fe2Fe3_5mM-HCl1M-RPMtest-Ag_AgCl_BLF8-GC-RDE.mps
Saved on :
	File : 240219-CV-EIS-Fe2Fe3_5mM-HCl1M-624RPM-Ag_AgCl_BLF8-GC-RDE_01_CV_C15.mpr
	Directory : C:\Data\mathias\RDE-RPM-variation\
	Host : 192.168.0.1
Device : VMP-300 (SN 0826)
Address : USB
EC-Lab for windows v11.52 (software)
Internet server v11.52 (firmware)
Command interpretor v11.52 (firmware)
Electrode material :
Initial state :
Electrolyte :
Comments :
Cable : special
Electrode surface area : 0.001 cm²
Characteristic mass : 0.001 g
Equivalent Weight : 0.000 g/eq.
Density : 0.000 g/cm3
Volume (V) : 0.001 cm³
Record EIS quality indicators
Cycle Definition : Charge/Discharge alternance
Ei (V)              0.000
vs.                 Eoc
dE/dt               20.000
dE/dt unit          mV/s
E1 (V)              1.000
vs.                 Ref
Step percent        50
N                   10
E range min (V)     -1.000
E range max (V)     1.000
I Range             Auto
I Range min         Unset
I Range max         Unset
I Range init        Unset
Bandwidth           8
E2 (V)              0.000
vs.                 Ref
nc cycles           2
Reverse Scan        1
Ef (V)              0.000
vs.                 Eoc

mode	ox/red	error	control changes	counter inc.	time/s	control/V	Ewe/V	<I>/mA	cycle number	(Q-Qo)/C	I Range	step time/s	P/W
2	1	0	0	0	0.000000000000000E+000	0.46309	0.462623	0.000428459	1	0.0000000E+000	43	0.000000000000000E+000	1.98215e-07
2	1	0	1	0	2.4976	0.513041	0.513004	0.0117838	1	1.48297e-05	41	2.4838	6.04511e-06
2	1	0	1	0	4.9465	0.562017	0.561705	0.0295837	1	6.37174e-05	41	4.9327	1.66173e-05
2	1	0	1	0	7.3953	0.610994	0.610561	0.060674	1	0.000171296	41	7.3815	3.70452e-05
2	1	0	1	0	9.8441	0.659971	0.659694	0.105627	1	0.000373092	41	9.8303	6.96815e-05
2	1	0	1	0	12.323	0.709547	0.709199	0.157191	1	0.000698787	40	12.3092	0.000111479
2	1	0	1	0	14.7718	0.758524	0.758097	0.205156	1	0.00114379	40	14.758	0.000155528
2	1	0	1	0	17.2206	0.807501	0.807241	0.245224	1	0.0016989	40	17.2068	0.000197955
2	1	0	1	0	19.6695	0.856477	0.856136	0.276275	1	0.00233889	40	19.6557	0.000236529
2	1	0	1	0	22.1183	0.905454	0.905143	0.293645	1	0.00303819	40	22.1045	0.00026579
2	1	0	1	0	24.5671	0.954431	0.954108	0.305417	1	0.0037735	40	24.5533	0.0002914
2	1	0	1	0	26.9842	0.99721	0.996888	0.312149	1	0.00452102	40	26.9704	0.000311177
2	1	0	1	0	29.433	0.948234	0.94777	0.302869	1	0.0052729	40	29.4192	0.00028705
2	1	0	1	0	31.8818	0.899257	0.898897	0.288174	1	0.00599455	40	31.868	0.000259039
2	1	0	1	0	34.3307	0.85028	0.850027	0.263012	1	0.00667132	40	34.3169	0.000223568
2	1	0	1	0	36.7795	0.801304	0.800914	0.23305	1	0.00728267	40	36.7657	0.000186653
2	1	0	1	0	39.2284	0.752326	0.751908	0.189315	1	0.00780079	40	39.2146	0.000142347
2	1	0	1	0	41.6772	0.70335	0.70316	0.140715	1	0.00820529	40	41.6634	9.89449e-05
2	1	0	1	0	44.126	0.654373	0.653947	0.093054	1	0.00849077	40	44.1122	6.08524e-05
2	1	0	1	0	46.5749	0.605397	0.605152	0.0520365	1	0.00866546	40	46.5611	3.149e-05
2	1	0	1	0	49.0537	0.55582	0.555441	0.0246873	1	0.00875729	41	49.0399	1.37123e-05
2	1	0	1	0	51.5025	0.506844	0.506682	0.00894326	1	0.00879655	41	51.4887	4.53139e-06
2	0	0	1	0	54.0413	0.456068	0.455973	-0.00231873	1	0.00880439	42	0.5297	-1.05728e-06
2	0	0	1	0	56.5201	0.406491	0.40624	-0.0144023	1	0.00878454	41	3.0085	-5.8508e-06
2	0	0	1	0	58.969	0.357515	0.357523	-0.0347113	1	0.00872667	41	5.4574	-1.24101e-05
2	0	0	1	0	61.4178	0.308538	0.30823	-0.0702271	1	0.00860163	41	7.9062	-2.16461e-05
2	0	0	1	0	63.8966	0.258962	0.258617	-0.121977	1	0.00836563	40	10.385	-3.15454e-05
2	0	0	1	0	66.3455	0.209985	0.20966	-0.177553	1	0.00799738	40	12.8339	-3.72259e-05
2	0	0	1	0	68.7943	0.161008	0.160844	-0.222293	1	0.00750377	40	15.2827	-3.57545e-05
2	0	0	1	0	71.2431	0.112031	0.11181	-0.252607	1	0.00691615	40	17.7315	-2.82441e-05
2	0	0	1	0	73.692	0.0630547	0.062586	-0.271827	1	0.00626985	40	20.1804	-1.70125e-05
2	0	0	1	0	76.1408	0.014078	0.0136913	-0.283611	1	0.00558809	40	22.6292	-3.883e-06
2	0	0	1	1	78.5578	0.0342684	0.0342185	-0.273888	1	0.00490686	40	25.0462	-9.37202e-06
2	0	0	1	1	81.0066	0.0832442	0.0828871	-0.261156	1	0.00424788	40	27.495	-2.16465e-05
2	0	0	1	1	83.4555	0.132222	0.132007	-0.236011	1	0.00363393	40	29.9439	-3.1155e-05
2	0	0	1	1	85.9043	0.181198	0.180933	-0.201129	1	0.00309772	40	32.3927	-3.63909e-05
2	0	0	1	1	88.3532	0.230175	0.229953	-0.150587	1	0.00266782	40	34.8416	-3.46279e-05
2	0	0	1	1	90.802	0.279152	0.279055	-0.0968913	1	0.00236598	40	37.2904	-2.7038e-05
2	0	0	1	1	93.2508	0.328129	0.327688	-0.0527344	1	0.00218616	40	39.7392	-1.72805e-05
2	0	0	1	1	95.7296	0.377704	0.377425	-0.0238206	1	0.00209456	41	42.218	-8.99051e-06
2	0	0	1	1	98.1785	0.426682	0.426406	-0.00734726	1	0.00205835	41	44.6669	-3.13291e-06
2	1	0	1	1	100.687	0.476858	0.476423	0.00432894	2	0.00205498	42	0.9246	2.06241e-06
2	1	0	1	1	103.166	0.526434	0.526074	0.0176074	2	0.00208118	41	3.4034	9.26281e-06
2	1	0	1	1	105.615	0.575412	0.57497	0.0394469	2	0.00214877	41	5.8523	2.26808e-05
2	1	0	1	1	108.064	0.624388	0.623932	0.0757126	2	0.00228674	41	8.3011	4.72395e-05
2	1	0	1	1	110.543	0.673964	0.673464	0.124447	2	0.00253417	40	10.7799	8.38107e-05
2	1	0	1	1	112.991	0.722941	0.722875	0.175405	2	0.00290259	40	13.2287	0.000126796
2	1	0	1	1	115.44	0.771918	0.771557	0.221868	2	0.00339022	40	15.6776	0.000171184
2	1	0	1	1	117.889	0.820894	0.820658	0.257973	2	0.00397988	40	18.1264	0.000211707
2	1	0	1	1	120.338	0.869872	0.869599	0.282261	2	0.0046405	40	20.5753	0.000245454
2	1	0	1	1	122.787	0.918848	0.918657	0.298273	2	0.00535298	40	23.0241	0.00027401
2	1	0	1	1	125.236	0.967824	0.967505	0.308628	2	0.00609864	40	25.4729	0.000298599
2	1	0	1	1	127.658	0.983717	0.983321	0.306221	2	0.00685227	40	27.895	0.000301113
2	1	0	1	1	130.106	0.93474	0.934545	0.299139	2	0.00759301	40	30.3438	0.000279559
2	1	0	1	1	132.555	0.885763	0.885403	0.282393	2	0.00830712	40	32.7926	0.000250032
2	1	0	1	1	135.004	0.836787	0.836437	0.258031	2	0.00897051	40	35.2415	0.000215826
2	1	0	1	1	137.453	0.78781	0.787431	0.222546	2	0.00956003	40	37.6903	0.000175239
2	1	0	1	1	139.902	0.738833	0.738472	0.176351	2	0.0100505	40	40.1391	0.000130231
2	1	0	1	1	142.351	0.689857	0.689566	0.127964	2	0.0104244	40	42.588	8.82397e-05
2	1	0	1	1	144.799	0.64088	0.640543	0.0812596	2	0.0106799	40	45.0368	5.20503e-05
2	1	0	1	1	147.278	0.591303	0.591054	0.0433227	2	0.0108313	41	47.5156	2.56061e-05
2	1	0	1	1	149.727	0.542327	0.542139	0.0197671	2	0.0109056	41	49.9645	1.07165e-05
2	1	0	1	1	152.176	0.49335	0.493021	0.00583093	2	0.0109354	41	52.4133	2.87477e-06
2	0	0	1	1	154.715	0.442574	0.442423	-0.00530604	2	0.0109359	42	1.1894	-2.34751e-06
2	0	0	1	1	157.194	0.392998	0.392806	-0.0191304	2	0.0109069	41	3.6682	-7.51453e-06
2	0	0	1	1	159.642	0.344022	0.34386	-0.043416	2	0.0108331	41	6.117	-1.4929e-05
2	0	0	1	1	162.091	0.295044	0.29466	-0.0839484	2	0.0106806	41	8.5659	-2.47363e-05
2	0	0	1	1	164.57	0.245468	0.245334	-0.13852	2	0.010406	40	11.0447	-3.39836e-05
2	0	0	1	1	167.019	0.196491	0.196216	-0.19212	2	0.009999	40	13.4935	-3.76972e-05
2	0	0	1	1	169.468	0.147515	0.14737	-0.233603	2	0.00947393	40	15.9424	-3.44262e-05
2	0	0	1	1	171.917	0.0985378	0.0983607	-0.259596	2	0.00886771	40	18.3912	-2.55341e-05
2	0	0	1	1	174.365	0.049562	0.0493042	-0.274714	2	0.00820867	40	20.84	-1.35445e-05
2	0	0	1	1	176.814	0.000584391	0.000553542	-0.288565	2	0.00751941	40	23.2889	-1.59733e-07
2	0	0	1	0	179.231	0.047762	0.0475481	-0.273775	2	0.00684338	40	25.7059	-1.30175e-05
2	0	0	1	0	181.68	0.0967387	0.0966268	-0.255753	2	0.00619184	40	28.1547	-2.47126e-05
2	0	0	1	0	184.129	0.145715	0.145483	-0.229002	2	0.00559595	40	30.6036	-3.3316e-05
2	0	0	1	0	186.578	0.194692	0.19445	-0.188539	2	0.00508201	40	33.0524	-3.66612e-05
2	0	0	1	0	189.027	0.243669	0.243475	-0.136449	2	0.00468274	40	35.5012	-3.3222e-05
2	0	0	1	0	191.475	0.292645	0.292347	-0.0838625	2	0.00441483	40	37.9501	-2.4517e-05
2	0	0	1	0	193.954	0.342222	0.342204	-0.0434106	2	0.00426066	41	40.4289	-1.48553e-05
2	0	0	1	0	196.403	0.391199	0.391129	-0.0185291	2	0.00418775	41	42.8777	-7.24726e-06
2	0	0	1	0	198.882	0.440776	0.440617	-0.00385913	2	0.00416149	42	45.3566	-1.7004e-06
2	1	0	1	0	201.306	0.489252	0.489109	0.00730923	3	0.00416563	42	1.5742	3.57501e-06
2	1	0	1	0	203.785	0.538828	0.538606	0.0222438	3	0.00420094	41	4.053	1.19806e-05
2	1	0	1	0	206.233	0.587803	0.587422	0.0474589	3	0.00428375	41	6.5018	2.78784e-05
2	1	0	1	0	208.682	0.636782	0.636542	0.0879065	3	0.00444661	41	8.9507	5.59561e-05
2	1	0	1	0	211.161	0.686358	0.68631	0.137998	3	0.00472613	40	11.4295	9.47094e-05
2	1	0	1	0	213.61	0.735337	0.735086	0.187181	3	0.00512537	40	13.8784	0.000137594
2	1	0	1	0	216.059	0.784312	0.783964	0.231828	3	0.00564039	40	16.3272	0.000181744
2	1	0	1	0	218.508	0.833288	0.832903	0.264845	3	0.00625066	40	18.776	0.000220591
2	1	0	1	0	220.956	0.882263	0.882275	0.285684	3	0.00692805	40	21.2248	0.000252052
2	1	0	1	0	223.405	0.931242	0.930995	0.298443	3	0.00764877	40	23.6737	0.000277849
2	1	0	1	0	225.854	0.980219	0.979765	0.313566	3	0.00840037	40	26.1225	0.00030722
2	1	0	1	0	228.281	0.971223	0.971071	0.30447	3	0.00915412	40	28.5496	0.000295662
2	1	0	1	0	230.73	0.922246	0.921975	0.295957	3	0.00989245	40	30.9984	0.000272865
2	1	0	1	0	233.179	0.873269	0.873086	0.277837	3	0.0105918	40	33.4472	0.000242575
2	1	0	1	0	235.628	0.824293	0.823977	0.249205	3	0.0112411	40	35.8961	0.000205339
2	1	0	1	0	238.076	0.775316	0.775089	0.212081	3	0.0118073	40	38.3449	0.000164382
2	1	0	1	0	240.525	0.726339	0.725988	0.165485	3	0.0122681	40	40.7937	0.00012014
2	1	0	1	0	242.974	0.677363	0.677167	0.115989	3	0.0126116	40	43.2426	7.85442e-05
2	1	0	1	0	245.423	0.628386	0.62829	0.0703595	3	0.012838	40	45.6914	4.42062e-05
2	1	0	1	0	247.902	0.578809	0.578406	0.0361701	3	0.0129669	41	48.1702	2.0921e-05
2	1	0	1	0	250.351	0.529833	0.529569	0.0156493	3	0.0130278	41	50.6191	8.28736e-06
2	1	0	1	0	252.829	0.480256	0.479982	0.0028147	3	0.0130495	42	53.0979	1.35101e-06
2	0	0	1	0	255.338	0.43008	0.429973	-0.00827017	3	0.0130429	42	1.8041	-3.55595e-06
2	0	0	1	0	257.817	0.380504	0.380222	-0.0241339	3	0.0130045	41	4.2829	-9.17627e-06
2	0	0	1	0	260.266	0.331527	0.331677	-0.0522525	3	0.012914	41	6.7318	-1.73309e-05
2	0	0	1	0	262.715	0.28255	0.282278	-0.0971828	3	0.0127343	41	9.1806	-2.74326e-05
2	0	0	1	0	265.194	0.232974	0.232449	-0.153304	3	0.0124244	40	11.6594	-3.56354e-05
2	0	0	1	0	267.642	0.183997	0.183791	-0.20394	3	0.0119839	40	14.1082	-3.74823e-05
2	0	0	1	0	270.091	0.13502	0.134831	-0.242444	3	0.0114331	40	16.5571	-3.26891e-05
2	0	0	1	0	272.54	0.0860438	0.0855559	-0.267206	3	0.0108089	40	19.0059	-2.2861e-05
2	0	0	1	0	274.989	0.0370666	0.0368011	-0.280348	3	0.010137	40	21.4548	-1.03171e-05
2	0	0	1	1	277.406	0.0112793	0.0111662	-0.281662	3	0.0094515	40	23.8718	-3.1451e-06
2	0	0	1	1	279.855	0.060256	0.06004	-0.272246	3	0.00877362	40	26.3206	-1.63457e-05
2	0	0	1	1	282.304	0.109233	0.108918	-0.250022	3	0.00813414	40	28.7694	-2.72319e-05
2	0	0	1	1	284.752	0.158209	0.157915	-0.221186	3	0.00755484	40	31.2183	-3.49286e-05
2	0	0	1	1	287.201	0.207186	0.206949	-0.175561	3	0.00706716	40	33.6671	-3.63323e-05
2	0	0	1	1	289.65	0.256163	0.255856	-0.122531	3	0.00670132	40	36.1159	-3.13503e-05
2	0	0	1	1	292.099	0.30514	0.304891	-0.0724028	3	0.00646481	40	38.5648	-2.2075e-05
2	0	0	1	1	294.578	0.354716	0.354547	-0.0358811	3	0.00633419	41	41.0436	-1.27215e-05
2	0	0	1	1	297.027	0.403693	0.403327	-0.0141801	3	0.00627551	41	43.4924	-5.71921e-06
2	0	0	1	1	299.505	0.453267	0.453025	-0.000960034	3	0.00625784	42	45.9712	-4.34919e-07
2	1	0	1	1	299.939	0.46194	0.461508	0.00103771	3	0.00625785	42	0.2037	4.78912e-07