File: Python/Data/RDE/240223-OCV-EIS-Fe2Fe3_5mM-HCl1M-625RPM-Ag_AgCl_BLF8-GC-RDE-1minRestVSEoc-3ppf-14p1mVAmplitude_06_PEIS_C15.mpt
EC-Lab ASCII FILE
Nb header lines : 67

Potentio Electrochemical Impedance Spectroscopy

Run on channel : 15 (SN 19485)
User :
Electrode connection : standard
Potential control : Ewe
Ewe ctrl range : min = -1.00 V, max = 1.00 V
Ewe,I filtering : 50 kHz
Safety Limits :
	Do not start on E overload
Channel : Floating
Acquisition started on : 02/23/2024 15:19:09.853
Loaded Setting File :  NONE
Saved on :
	File : 240223-OCV-EIS-Fe2Fe3_5mM-HCl1M-625RPM-Ag_AgCl_BLF8-GC-RDE-1minRestVSEoc-3ppf-14p1mVAmplitude_06_PEIS_C15.mpr
	Directory : C:\Data\mathias\RDE-RPM-variation\
	Host : 192.168.0.1
Device : VMP-300 (SN 0826)
Address : USB
EC-Lab for windows v11.52 (software)
Internet server v11.52 (firmware)
Command interpretor v11.52 (firmware)
Electrode material :
Initial state :
Electrolyte :
Comments :
Cable : special
Reference electrode : SCE Saturated Calomel Electrode (0.241 V)
Electrode surface area : 0.001 cm²
Characteristic mass : 0.001 g
Equivalent Weight : 0.000 g/eq.
Density : 0.000 g/cm3
Volume (V) : 0.001 cm³
Record EIS quality indicators
Cycle Definition : Charge/Discharge alternance
Mode                Single sine
E (V)               0.0000
vs.                 Eoc
tE (h:m:s)          0:01:0.0000
record              0
dI                  0.000
unit dI             mA
dt (s)              0.000
fi                  1.000
unit fi             MHz
ff                  100.000
unit ff             mHz
Nd                  10
Points              per decade
spacing             Logarithmic
Va (mV)             14.1
pw                  0.10
Na                  3
corr                0
E range min (V)     -1.000
E range max (V)     1.000
I Range             Auto
Bandwidth           8
nc cycles           0
goto Ns'            0
nr cycles           0
inc. cycle          1

freq/Hz	Re(Z)/Ohm	-Im(Z)/Ohm	|Z|/Ohm	Phase(Z)/deg	time/s	<Ewe>/V	<I>/mA	Cs/µF	Cp/µF	cycle number	I Range	|Ewe|/V	|I|/A	Ns	(Q-Qo)/mA.h	THD Ewe/%	NSD Ewe/%	NSR Ewe/%	|Ewe h2|/V	|Ewe h3|/V	|Ewe h4|/V	|Ewe h5|/V	|Ewe h6|/V	|Ewe h7|/V	THD I/%	NSD I/%	NSR I/%	|I h2|/A	|I h3|/A	|I h4|/A	|I h5|/A	|I h6|/A	|I h7|/A	Re(Y)/Ohm-1	Im(Y)/Ohm-1	|Y|/Ohm-1	Phase(Y)/deg	Re(C)/nF	Im(C)/nF	|C|/nF	Phase(C)/deg	Re(M)	Im(M)	|M|	Phase(M)/deg	Re(Permittivity)	Im(Permittivity)	|Permittivity|	Phase(Permittivity)/deg	Re(Resistivity)/Ohm.cm	Im(Resistivity)/Ohm.cm	|Resistivity|/Ohm.cm	Phase(Resistivity)/deg	Re(Conductivity)/mS/cm	Im(Conductivity)/mS/cm	|Conductivity|/mS/cm	Phase(Conductivity)/deg	Tan(Delta)	Loss Angle(Delta)/deg	dq/mA.h
1.00002e+06	3.53269	4.08752	5.40257	-49.1644	1085.19	0.459503	-0.0104513	0.038936	0.022288	1	38	0.0111613	0.00206592	0	-7.75551e-06	-1	-1	-1	0	0	0	0	0	0	-1	-1	-1	0	0	0	0	0	0	0.121033	0.140042	0.185097	49.1644	22.288	19.2627	29.4586	-40.8356	0.0000000E+000	0.0000000E+000	0.0000000E+000	40.8356	0.0000000E+000	0.0000000E+000	0.0000000E+000	-40.8356	0.0000000E+000	0.0000000E+000	0.0000000E+000	-49.1644	0.0000000E+000	0.0000000E+000	0.0000000E+000	49.1644	0.864262	40.8356	-7.75551e-06
316230	3.43789	1.35918	3.69682	-21.5716	1090.79	0.459514	-0.00202598	0.370287	0.050054	1	38	0.0145456	0.00393462	0	1.06151e-05	-1	-1	-1	0	0	0	0	0	0	-1	-1	-1	0	0	0	0	0	0	0.251556	0.0994539	0.270503	21.5716	50.054	126.606	136.141	-68.4284	0.0000000E+000	0.0000000E+000	0.0000000E+000	68.4284	0.0000000E+000	0.0000000E+000	0.0000000E+000	-68.4284	0.0000000E+000	0.0000000E+000	0.0000000E+000	-21.5716	0.0000000E+000	0.0000000E+000	0.0000000E+000	21.5716	2.52938	68.4284	6.93071e-06
100004	3.42016	1.0605	3.5808	-17.2272	1096.52	0.459501	-0.00124955	1.5007	0.13163	1	38	0.0145874	0.00407379	0	6.22616e-07	0.468391	0.262439	9.15807	1.12708e-05	2.47088e-05	2.94344e-05	3.45055e-05	1.5961e-05	3.10124e-05	0.0637318	0.0480874	0.703355	1.86432e-06	1.22052e-06	5.73234e-07	7.71939e-07	4.49012e-07	4.05022e-07	0.266739	0.0827084	0.279267	17.2272	131.63	424.512	444.451	-72.7728	0.0000000E+000	0.0000000E+000	0.0000000E+000	72.7728	0.0000000E+000	0.0000000E+000	0.0000000E+000	-72.7728	0.0000000E+000	0.0000000E+000	0.0000000E+000	-17.2272	0.0000000E+000	0.0000000E+000	0.0000000E+000	17.2272	3.22505	72.7728	-1.24324e-08
31621.1	3.60841	2.15903	4.205	-30.8934	1102.26	0.459518	-0.00228107	2.33123	0.614566	1	38	0.014656	0.00348538	0	-1.25142e-05	0.516865	0.251512	9.02069	2.44802e-05	2.21437e-05	3.9684e-05	3.15851e-05	2.04178e-05	3.35915e-05	0.0706728	0.0913388	0.834592	9.1717e-07	1.39783e-06	1.05291e-06	8.64792e-07	6.14745e-07	6.16467e-07	0.204072	0.122103	0.237812	30.8934	614.566	1027.13	1196.95	-59.1066	0.0000000E+000	0.0000000E+000	0.0000000E+000	59.1066	0.0000000E+000	0.0000000E+000	0.0000000E+000	-59.1066	0.0000000E+000	0.0000000E+000	0.0000000E+000	-30.8934	0.0000000E+000	0.0000000E+000	0.0000000E+000	30.8934	1.67131	59.1066	-1.50604e-06
10002.2	4.22272	5.86179	7.2244	-54.2317	1108	0.4595	-0.00242822	2.71452	1.7871	1	38	0.0144949	0.00200638	0	-2.63013e-05	0.428382	0.306646	9.25595	3.41825e-05	2.68233e-05	2.62693e-05	1.38854e-05	1.41114e-05	1.92689e-05	0.22419	0.189682	1.46639	4.11541e-06	5.41488e-07	6.58997e-07	1.23952e-06	4.83724e-07	5.97317e-07	0.0809075	0.112312	0.13842	54.2317	1787.1	1287.4	2202.53	-35.7683	0.0000000E+000	0.0000000E+000	0.0000000E+000	35.7683	0.0000000E+000	0.0000000E+000	0.0000000E+000	-35.7683	0.0000000E+000	0.0000000E+000	0.0000000E+000	-54.2317	0.0000000E+000	0.0000000E+000	0.0000000E+000	54.2317	0.720382	35.7683	6.10478e-07
3163.04	6.37507	16.3372	17.537	-68.6834	1113.78	0.45939	-0.00180078	3.0799	2.6729	1	38	0.0139789	0.000797109	0	-3.25362e-05	0.492904	0.250284	9.43419	1.94928e-05	1.71928e-05	3.47983e-05	3.11172e-05	1.42634e-05	3.0206e-05	0.85642	0.0750659	3.63006	6.04652e-06	2.67691e-06	6.55466e-07	1.06281e-06	6.54201e-07	6.57404e-07	0.0207288	0.0531211	0.0570223	68.6834	2672.9	1043.01	2869.19	-21.3166	0.0000000E+000	0.0000000E+000	0.0000000E+000	21.3166	0.0000000E+000	0.0000000E+000	0.0000000E+000	-21.3166	0.0000000E+000	0.0000000E+000	0.0000000E+000	-68.6834	0.0000000E+000	0.0000000E+000	0.0000000E+000	68.6834	0.390217	21.3166	-9.03258e-07
999.682	13.6555	44.0991	46.1649	-72.7947	1119.56	0.459375	-0.000339606	3.61018	3.2943	1	39	0.0140358	0.000304037	0	-3.58272e-05	0.541885	0.267004	8.90962	3.16405e-05	4.55381e-05	1.72247e-05	2.09424e-05	2.98666e-05	2.78706e-05	1.17706	0.177909	4.16199	2.7605e-06	2.04157e-06	2.73748e-07	8.02198e-07	2.52339e-07	3.0729e-07	0.0064074	0.0206921	0.0216615	72.7947	3294.3	1020.09	3448.63	-17.2053	0.0000000E+000	0.0000000E+000	0.0000000E+000	17.2053	0.0000000E+000	0.0000000E+000	0.0000000E+000	-17.2053	0.0000000E+000	0.0000000E+000	0.0000000E+000	-72.7947	0.0000000E+000	0.0000000E+000	0.0000000E+000	72.7947	0.309654	17.2054	-1.78432e-07
316.316	36.7793	114.993	120.731	-72.2636	1125.09	0.4594	0.000185233	4.37552	3.96945	1	39	0.0130107	0.000107766	0	-3.61414e-05	0.590249	0.308162	9.78247	2.90477e-05	3.52496e-05	2.87079e-05	3.37772e-05	3.1165e-05	2.26757e-05	1.19968	0.490882	12.4314	8.20215e-07	6.12508e-07	3.79502e-07	4.85276e-07	2.2778e-07	2.81708e-07	0.00252328	0.00788917	0.00828287	72.2636	3969.45	1269.59	4167.54	-17.7364	0.0000000E+000	0.0000000E+000	0.0000000E+000	17.7364	0.0000000E+000	0.0000000E+000	0.0000000E+000	-17.7364	0.0000000E+000	0.0000000E+000	0.0000000E+000	-72.2636	0.0000000E+000	0.0000000E+000	0.0000000E+000	72.2636	0.319841	17.7364	-5.39473e-08
99.9682	105.665	285.777	304.686	-69.7082	1130.85	0.459375	-3.54114e-05	5.57098	4.90095	1	40	0.0130393	4.27958e-05	0	-3.64411e-05	0.918363	0.355032	15.4408	5.57536e-05	4.4365e-05	5.17239e-05	3.65804e-05	5.02347e-05	3.49164e-05	0.923996	0.164579	6.24059	2.90155e-07	1.76858e-07	7.04335e-08	1.501e-07	5.99275e-08	5.8921e-08	0.00113822	0.00307838	0.00328207	69.7082	4900.95	1812.12	5225.24	-20.2918	0.0000000E+000	0.0000000E+000	0.0000000E+000	20.2918	0.0000000E+000	0.0000000E+000	0.0000000E+000	-20.2918	0.0000000E+000	0.0000000E+000	0.0000000E+000	-69.7082	0.0000000E+000	0.0000000E+000	0.0000000E+000	69.7082	0.369748	20.2918	1.25004e-08
31.6296	328.217	670.663	746.669	-63.9232	1136.18	0.459399	-6.71524e-05	7.50279	6.05305	1	40	0.0128879	1.72605e-05	0	-3.66054e-05	0.841158	0.484061	15.3288	3.04938e-05	5.44922e-05	4.18427e-05	3.6871e-05	4.64223e-05	3.15804e-05	1.18531	0.463156	14.9151	1.26863e-07	1.01557e-07	5.36508e-08	6.49475e-08	6.03129e-08	5.58159e-08	0.000588715	0.00120295	0.00133928	63.9232	6053.05	2962.32	6739.05	-26.0768	0.0000000E+000	0.0000000E+000	0.0000000E+000	26.0768	0.0000000E+000	0.0000000E+000	0.0000000E+000	-26.0768	0.0000000E+000	0.0000000E+000	0.0000000E+000	-63.9232	0.0000000E+000	0.0000000E+000	0.0000000E+000	63.9232	0.489392	26.0768	-2.3727e-08
9.99682	1017.13	1326.27	1671.39	-52.5149	1141.88	0.45946	-8.67126e-05	12.004	7.55846	1	41	0.0128763	7.70391e-06	0	-3.67243e-05	0.949451	0.653319	19.1891	3.11077e-05	6.65707e-05	4.7659e-05	5.74e-05	3.59011e-05	4.32078e-05	0.968594	0.159413	6.30708	6.36827e-08	2.31815e-08	8.6372e-09	2.7207e-08	7.15059e-09	6.24402e-09	0.000364101	0.000474761	0.000598304	52.5149	7558.46	5796.69	9525.33	-37.4851	0.0000000E+000	0.0000000E+000	0.0000000E+000	37.4851	0.0000000E+000	0.0000000E+000	0.0000000E+000	-37.4851	0.0000000E+000	0.0000000E+000	0.0000000E+000	-52.5149	0.0000000E+000	0.0000000E+000	0.0000000E+000	52.5149	0.766913	37.4851	2.04005e-08
3.16296	2495.32	1679.38	3007.82	-33.9411	1150.32	0.459423	-8.33925e-05	29.9624	9.34059	1	41	0.0128802	4.28223e-06	0	-3.69784e-05	0.427257	0.242752	8.85875	2.12553e-05	2.4213e-05	1.31303e-05	2.83135e-05	1.81871e-05	1.76471e-05	0.878985	0.176215	5.46932	3.28093e-08	1.51716e-08	2.22372e-09	6.0497e-09	4.22281e-09	3.88276e-09	0.000275819	0.00018563	0.000332467	33.9411	9340.59	13878.8	16729.2	-56.0589	0.0000000E+000	0.0000000E+000	0.0000000E+000	56.0589	0.0000000E+000	0.0000000E+000	0.0000000E+000	-56.0589	0.0000000E+000	0.0000000E+000	0.0000000E+000	-33.9411	0.0000000E+000	0.0000000E+000	0.0000000E+000	33.9411	1.48585	56.0589	-1.34334e-07
1.00006	3775.98	1189.47	3958.9	-17.485	1173.75	0.459433	-8.54333e-05	133.795	12.0781	1	42	0.0128734	3.25176e-06	0	-3.73345e-05	0.234932	0.183303	4.79074	1.05505e-05	1.1978e-05	9.84059e-06	8.92565e-06	1.39056e-05	1.40504e-05	0.758806	0.0343824	1.20544	2.19661e-08	1.05218e-08	1.94732e-10	3.85183e-09	5.83219e-10	5.79813e-10	0.000240925	7.58938e-05	0.000252596	17.485	12078.1	38342	40199.4	-72.515	0.0000000E+000	0.0000000E+000	0.0000000E+000	72.515	0.0000000E+000	0.0000000E+000	0.0000000E+000	-72.515	0.0000000E+000	0.0000000E+000	0.0000000E+000	-17.485	0.0000000E+000	0.0000000E+000	0.0000000E+000	17.485	3.1745	72.515	4.0964e-08
0.316193	4391.76	642.839	4438.56	-8.32747	1239.54	0.459425	-8.19682e-05	783.007	16.4243	1	42	0.0128657	2.89863e-06	0	-3.93989e-05	0.150301	0.0961896	2.60371	4.64651e-06	1.03934e-05	4.59901e-06	8.52024e-06	5.91096e-06	8.19624e-06	0.769454	0.0334323	1.35465	2.05415e-08	8.2522e-09	2.6671e-10	2.65337e-09	3.02426e-10	3.69252e-10	0.000222923	3.26301e-05	0.000225298	8.32747	16424.3	112208	113403	-81.6725	0.0000000E+000	0.0000000E+000	0.0000000E+000	81.6725	0.0000000E+000	0.0000000E+000	0.0000000E+000	-81.6725	0.0000000E+000	0.0000000E+000	0.0000000E+000	-8.32747	0.0000000E+000	0.0000000E+000	0.0000000E+000	8.32747	6.83181	81.6725	-7.50511e-07
0.0999518	4648.8	288.233	4657.73	-3.54789	1444.13	0.459445	-8.1759e-05	5524.41	21.1556	1	42	0.0128645	2.76196e-06	0	-4.41714e-05	0.134521	0.0580141	1.52211	3.62602e-06	8.43605e-06	4.71216e-06	8.53488e-06	8.27526e-06	5.76572e-06	0.792048	0.0333219	1.44209	2.01921e-08	8.07942e-09	1.79606e-10	2.32165e-09	1.58054e-10	2.39554e-10	0.000214286	1.32861e-05	0.000214697	3.54789	21155.6	341211	341866	-86.4521	0.0000000E+000	0.0000000E+000	0.0000000E+000	86.4521	0.0000000E+000	0.0000000E+000	0.0000000E+000	-86.4521	0.0000000E+000	0.0000000E+000	0.0000000E+000	-3.54789	0.0000000E+000	0.0000000E+000	0.0000000E+000	3.54789	16.1286	86.4521	-2.35448e-06