File: Python/Data/RDE/240223-OCV-EIS-Fe2Fe3_5mM-HCl1M-1225RPM-Ag_AgCl_BLF8-GC-RDE-1minRestVSEoc-3ppf-14p1mVAmplitude_02_PEIS_C15.mpt
EC-Lab ASCII FILE
Nb header lines : 67

Potentio Electrochemical Impedance Spectroscopy

Run on channel : 15 (SN 19485)
User :
Electrode connection : standard
Potential control : Ewe
Ewe ctrl range : min = -1.00 V, max = 1.00 V
Ewe,I filtering : 50 kHz
Safety Limits :
	Do not start on E overload
Channel : Floating
Acquisition started on : 02/23/2024 14:49:54.683
Loaded Setting File :  NONE
Saved on :
	File : 240223-OCV-EIS-Fe2Fe3_5mM-HCl1M-1225RPM-Ag_AgCl_BLF8-GC-RDE-1minRestVSEoc-3ppf-14p1mVAmplitude_02_PEIS_C15.mpr
	Directory : C:\Data\mathias\RDE-RPM-variation\
	Host : 192.168.0.1
Device : VMP-300 (SN 0826)
Address : USB
EC-Lab for windows v11.52 (software)
Internet server v11.52 (firmware)
Command interpretor v11.52 (firmware)
Electrode material :
Initial state :
Electrolyte :
Comments :
Cable : special
Reference electrode : SCE Saturated Calomel Electrode (0.241 V)
Electrode surface area : 0.001 cm²
Characteristic mass : 0.001 g
Equivalent Weight : 0.000 g/eq.
Density : 0.000 g/cm3
Volume (V) : 0.001 cm³
Record EIS quality indicators
Cycle Definition : Charge/Discharge alternance
Mode                Single sine
E (V)               0.0000
vs.                 Eoc
tE (h:m:s)          0:01:0.0000
record              0
dI                  0.000
unit dI             mA
dt (s)              0.000
fi                  1.000
unit fi             MHz
ff                  100.000
unit ff             mHz
Nd                  10
Points              per decade
spacing             Logarithmic
Va (mV)             14.1
pw                  0.10
Na                  3
corr                0
E range min (V)     -1.000
E range max (V)     1.000
I Range             Auto
Bandwidth           8
nc cycles           0
goto Ns'            0
nr cycles           0
inc. cycle          1

freq/Hz	Re(Z)/Ohm	-Im(Z)/Ohm	|Z|/Ohm	Phase(Z)/deg	time/s	<Ewe>/V	<I>/mA	Cs/µF	Cp/µF	cycle number	I Range	|Ewe|/V	|I|/A	Ns	(Q-Qo)/mA.h	THD Ewe/%	NSD Ewe/%	NSR Ewe/%	|Ewe h2|/V	|Ewe h3|/V	|Ewe h4|/V	|Ewe h5|/V	|Ewe h6|/V	|Ewe h7|/V	THD I/%	NSD I/%	NSR I/%	|I h2|/A	|I h3|/A	|I h4|/A	|I h5|/A	|I h6|/A	|I h7|/A	Re(Y)/Ohm-1	Im(Y)/Ohm-1	|Y|/Ohm-1	Phase(Y)/deg	Re(C)/nF	Im(C)/nF	|C|/nF	Phase(C)/deg	Re(M)	Im(M)	|M|	Phase(M)/deg	Re(Permittivity)	Im(Permittivity)	|Permittivity|	Phase(Permittivity)/deg	Re(Resistivity)/Ohm.cm	Im(Resistivity)/Ohm.cm	|Resistivity|/Ohm.cm	Phase(Resistivity)/deg	Re(Conductivity)/mS/cm	Im(Conductivity)/mS/cm	|Conductivity|/mS/cm	Phase(Conductivity)/deg	Tan(Delta)	Loss Angle(Delta)/deg	dq/mA.h
1.00002e+06	3.53991	4.07945	5.40119	-49.0505	119.764	0.459611	-0.0113842	0.0390131	0.0222554	1	38	0.011146	0.00206362	0	-3.46054e-06	-1	-1	-1	0	0	0	0	0	0	-1	-1	-1	0	0	0	0	0	0	0.121342	0.139837	0.185144	49.0505	22.2554	19.3119	29.4661	-40.9495	0.0000000E+000	0.0000000E+000	0.0000000E+000	40.9495	0.0000000E+000	0.0000000E+000	0.0000000E+000	-40.9495	0.0000000E+000	0.0000000E+000	0.0000000E+000	-49.0505	0.0000000E+000	0.0000000E+000	0.0000000E+000	49.0505	0.86774	40.9495	-3.46054e-06
316230	3.45056	1.34888	3.70484	-21.3514	125.365	0.459603	-0.00244305	0.373115	0.0494598	1	38	0.0145558	0.00392886	0	-1.71482e-05	-1	-1	-1	0	0	0	0	0	0	-1	-1	-1	0	0	0	0	0	0	0.251391	0.0982732	0.269917	21.3514	49.4598	126.522	135.846	-68.6486	0.0000000E+000	0.0000000E+000	0.0000000E+000	68.6486	0.0000000E+000	0.0000000E+000	0.0000000E+000	-68.6486	0.0000000E+000	0.0000000E+000	0.0000000E+000	-21.3514	0.0000000E+000	0.0000000E+000	0.0000000E+000	21.3514	2.55809	68.6486	-8.64679e-06
100004	3.42617	1.04459	3.58188	-16.9557	131.102	0.459608	-0.00186771	1.52356	0.129577	1	38	0.0145632	0.00406581	0	-1.87659e-05	0.519906	0.360683	8.96818	2.98627e-05	3.16071e-05	1.94478e-05	2.30024e-05	2.52122e-05	4.23243e-05	0.067056	0.0233487	0.701671	2.32082e-06	8.28131e-07	7.47809e-07	4.63003e-07	4.77269e-07	4.59742e-07	0.267047	0.0814187	0.279183	16.9557	129.577	425.004	444.318	-73.0443	0.0000000E+000	0.0000000E+000	0.0000000E+000	73.0443	0.0000000E+000	0.0000000E+000	0.0000000E+000	-73.0443	0.0000000E+000	0.0000000E+000	0.0000000E+000	-16.9557	0.0000000E+000	0.0000000E+000	0.0000000E+000	16.9557	3.27993	73.0443	8.26058e-06
31621.1	3.61806	2.10796	4.18734	-30.226	136.837	0.45962	-0.00174297	2.38771	0.605101	1	38	0.0146531	0.00349939	0	-2.18099e-05	0.503438	0.356105	8.58765	3.16263e-05	3.04673e-05	3.49932e-05	1.90198e-05	2.51652e-05	2.49561e-05	0.0554618	0.0485591	0.822244	4.3207e-07	1.32271e-06	6.86671e-07	8.65512e-07	3.38365e-07	5.22416e-07	0.206347	0.120222	0.238815	30.226	605.101	1038.58	1202	-59.774	0.0000000E+000	0.0000000E+000	0.0000000E+000	59.774	0.0000000E+000	0.0000000E+000	0.0000000E+000	-59.774	0.0000000E+000	0.0000000E+000	0.0000000E+000	-30.226	0.0000000E+000	0.0000000E+000	0.0000000E+000	30.226	1.71638	59.774	-2.87266e-06
10002.2	4.21512	5.7177	7.10347	-53.6021	142.575	0.459635	-0.00169461	2.78293	1.80303	1	38	0.0145934	0.0020544	0	-2.4657e-05	0.577501	0.212177	8.88332	5.61825e-05	2.41153e-05	3.1258e-05	9.99698e-06	3.47922e-05	2.33637e-05	0.200171	0.0374223	1.41549	3.66634e-06	5.10403e-07	9.16557e-07	1.09819e-06	6.28988e-07	5.25205e-07	0.083535	0.113313	0.140776	53.6021	1803.03	1329.21	2240.02	-36.3979	0.0000000E+000	0.0000000E+000	0.0000000E+000	36.3979	0.0000000E+000	0.0000000E+000	0.0000000E+000	-36.3979	0.0000000E+000	0.0000000E+000	0.0000000E+000	-53.6021	0.0000000E+000	0.0000000E+000	0.0000000E+000	53.6021	0.737206	36.3979	-5.27199e-06
3163.04	6.37973	15.9141	17.1453	-68.1549	148.353	0.459513	-0.00220668	3.16179	2.72402	1	38	0.0138316	0.00080673	0	-2.69588e-05	0.538306	0.397455	9.50382	2.83613e-05	3.50463e-05	3.1595e-05	1.53428e-05	3.76163e-05	1.68863e-05	0.851703	0.167857	3.55357	6.11684e-06	2.75798e-06	5.94605e-07	7.65013e-07	4.98815e-07	7.05686e-07	0.0217027	0.054137	0.0583251	68.1549	2724.02	1092.02	2934.75	-21.8451	0.0000000E+000	0.0000000E+000	0.0000000E+000	21.8451	0.0000000E+000	0.0000000E+000	0.0000000E+000	-21.8451	0.0000000E+000	0.0000000E+000	0.0000000E+000	-68.1549	0.0000000E+000	0.0000000E+000	0.0000000E+000	68.1549	0.400885	21.8451	-8.83526e-07
999.682	13.4731	43.0307	45.0907	-72.6144	154.137	0.459486	-0.000383592	3.69981	3.36948	1	39	0.0139359	0.000309064	0	-3.19583e-05	0.512147	0.297174	8.84602	2.75342e-05	3.60005e-05	2.20413e-05	9.31916e-06	3.64866e-05	2.4775e-05	1.185	0.19672	4.13647	2.88136e-06	2.05894e-06	1.81046e-07	7.86567e-07	2.20966e-07	2.11953e-07	0.00662667	0.0211644	0.0221775	72.6144	3369.48	1055	3530.79	-17.3856	0.0000000E+000	0.0000000E+000	0.0000000E+000	17.3856	0.0000000E+000	0.0000000E+000	0.0000000E+000	-17.3856	0.0000000E+000	0.0000000E+000	0.0000000E+000	-72.6144	0.0000000E+000	0.0000000E+000	0.0000000E+000	72.6144	0.313105	17.3856	-3.1746e-07
316.316	35.7333	111.579	117.161	-72.2423	159.667	0.459551	-0.000496542	4.50938	4.08991	1	39	0.0128653	0.000109809	0	-3.21584e-05	0.43772	0.186375	9.85014	3.01406e-05	1.81153e-05	2.21761e-05	2.34307e-05	2.08703e-05	1.68134e-05	0.96474	0.305885	11.9357	7.11162e-07	3.74364e-07	2.48114e-07	5.35309e-07	2.06646e-07	2.46762e-07	0.00260319	0.00812859	0.00853525	72.2423	4089.91	1309.8	4294.53	-17.7577	0.0000000E+000	0.0000000E+000	0.0000000E+000	17.7577	0.0000000E+000	0.0000000E+000	0.0000000E+000	-17.7577	0.0000000E+000	0.0000000E+000	0.0000000E+000	-72.2423	0.0000000E+000	0.0000000E+000	0.0000000E+000	72.2423	0.320252	17.7578	-1.7355e-07
99.9682	103.555	277.421	296.118	-69.5306	165.428	0.459533	-8.03022e-05	5.73877	5.03695	1	40	0.0129144	4.36121e-05	0	-3.2282e-05	0.912464	0.50131	15.2267	4.07251e-05	3.30648e-05	4.92944e-05	5.17117e-05	6.41073e-05	2.0766e-05	0.918342	0.176534	5.88326	3.0338e-07	1.91852e-07	6.52693e-08	1.19934e-07	9.22887e-08	3.82504e-08	0.00118097	0.0031638	0.00337703	69.5306	5036.95	1880.17	5376.42	-20.4694	0.0000000E+000	0.0000000E+000	0.0000000E+000	20.4694	0.0000000E+000	0.0000000E+000	0.0000000E+000	-20.4694	0.0000000E+000	0.0000000E+000	0.0000000E+000	-69.5306	0.0000000E+000	0.0000000E+000	0.0000000E+000	69.5306	0.373276	20.4694	3.13302e-09
31.6296	321.732	649.222	724.569	-63.6385	170.755	0.459535	-0.00011344	7.75057	6.22243	1	40	0.0127524	1.75999e-05	0	-3.23164e-05	0.91766	0.413089	15.3229	4.2678e-05	5.5501e-05	4.42515e-05	2.90639e-05	4.15014e-05	5.09226e-05	1.28101	0.415616	14.493	1.61493e-07	9.04712e-08	5.44037e-08	7.10111e-08	4.73944e-08	4.76012e-08	0.000612823	0.00123661	0.00138013	63.6385	6222.43	3083.63	6944.59	-26.3615	0.0000000E+000	0.0000000E+000	0.0000000E+000	26.3615	0.0000000E+000	0.0000000E+000	0.0000000E+000	-26.3615	0.0000000E+000	0.0000000E+000	0.0000000E+000	-63.6385	0.0000000E+000	0.0000000E+000	0.0000000E+000	63.6385	0.495566	26.3615	3.41576e-09
9.99682	994.174	1269.67	1612.59	-51.9384	176.677	0.459529	-9.26792e-05	12.5391	7.77323	1	41	0.0141188	8.75535e-06	0	-3.24094e-05	0.992771	0.584643	17.6761	3.01816e-05	3.64964e-05	6.35409e-05	4.14103e-05	3.75333e-05	8.59821e-05	1.02482	0.257544	5.65661	7.49332e-08	4.15948e-08	1.5973e-08	1.08536e-08	7.1259e-09	1.40531e-08	0.000382309	0.000488251	0.000620121	51.9384	7773.23	6086.58	9872.67	-38.0616	0.0000000E+000	0.0000000E+000	0.0000000E+000	38.0616	0.0000000E+000	0.0000000E+000	0.0000000E+000	-38.0616	0.0000000E+000	0.0000000E+000	0.0000000E+000	-51.9384	0.0000000E+000	0.0000000E+000	0.0000000E+000	51.9384	0.783018	38.0616	1.17158e-09
3.16296	2393.7	1574.94	2865.36	-33.343	185.117	0.459536	-9.39485e-05	31.9493	9.65238	1	41	0.0140996	4.92073e-06	0	-3.26883e-05	0.29928	0.319215	7.82292	1.76497e-05	1.46921e-05	1.42055e-05	2.07059e-05	1.14782e-05	1.85544e-05	0.859588	0.170519	4.70546	3.68953e-08	1.73479e-08	3.274e-09	8.67712e-09	3.23667e-09	3.89661e-09	0.00029155	0.000191826	0.000348997	33.343	9652.38	14670.3	17561	-56.657	0.0000000E+000	0.0000000E+000	0.0000000E+000	56.657	0.0000000E+000	0.0000000E+000	0.0000000E+000	-56.657	0.0000000E+000	0.0000000E+000	0.0000000E+000	-33.343	0.0000000E+000	0.0000000E+000	0.0000000E+000	33.343	1.51987	56.657	-1.63781e-07
1.00006	3586.72	1088.12	3748.15	-16.8765	208.866	0.459525	-9.32196e-05	146.257	12.3264	1	42	0.0140846	3.75775e-06	0	-3.30456e-05	0.242116	0.114727	4.25472	1.81507e-05	1.41875e-05	9.58178e-06	1.65831e-05	6.55646e-06	8.5283e-06	0.830817	0.0452362	1.22921	2.78193e-08	1.34734e-08	4.77039e-10	4.26338e-09	5.03234e-10	5.04926e-10	0.000255308	7.74541e-05	0.000266799	16.8765	12326.4	40631.1	42459.7	-73.1235	0.0000000E+000	0.0000000E+000	0.0000000E+000	73.1235	0.0000000E+000	0.0000000E+000	0.0000000E+000	-73.1235	0.0000000E+000	0.0000000E+000	0.0000000E+000	-16.8765	0.0000000E+000	0.0000000E+000	0.0000000E+000	16.8765	3.29625	73.1235	1.55475e-07
0.316193	4126.01	559.696	4163.8	-7.72505	274.664	0.459535	-9.59571e-05	899.323	16.2495	1	42	0.0140912	3.38421e-06	0	-3.5343e-05	0.1276	0.0783296	2.32327	4.45056e-06	6.97548e-06	5.84437e-06	9.49085e-06	5.51914e-06	6.85474e-06	0.82652	0.0272643	1.33103	2.53689e-08	1.13851e-08	3.06146e-10	2.94186e-09	4.6348e-10	3.47429e-10	0.000237986	3.22829e-05	0.000240165	7.72505	16249.5	119789	120887	-82.2749	0.0000000E+000	0.0000000E+000	0.0000000E+000	82.2749	0.0000000E+000	0.0000000E+000	0.0000000E+000	-82.2749	0.0000000E+000	0.0000000E+000	0.0000000E+000	-7.72505	0.0000000E+000	0.0000000E+000	0.0000000E+000	7.72505	7.37188	82.2749	-1.07514e-06
0.0999518	4346.4	247.709	4353.45	-3.26186	479.247	0.459538	-9.34147e-05	6428.17	20.8115	1	42	0.0140915	3.23686e-06	0	-4.00084e-05	0.142818	0.0431763	1.39781	4.75518e-06	1.06096e-05	2.65497e-06	1.3912e-05	5.23753e-06	4.11632e-06	0.873698	0.0263386	1.36384	2.60496e-08	1.07347e-08	1.5801e-10	2.40569e-09	2.47087e-10	1.6698e-10	0.000229331	1.307e-05	0.000229703	3.26186	20811.5	365167	365760	-86.7381	0.0000000E+000	0.0000000E+000	0.0000000E+000	86.7381	0.0000000E+000	0.0000000E+000	0.0000000E+000	-86.7381	0.0000000E+000	0.0000000E+000	0.0000000E+000	-3.26186	0.0000000E+000	0.0000000E+000	0.0000000E+000	3.26186	17.5464	86.7381	-2.26641e-06