File: Python/Data/RDE/240223-OCV-EIS-Fe2Fe3_5mM-HCl1M-225RPM-Ag_AgCl_BLF8-GC-RDE-1minRestVSEoc-3ppf-14p1mVAmplitude_03_OCV_C15.mpt
EC-Lab ASCII FILE
Nb header lines : 47

Open Circuit Voltage

Run on channel : 15 (SN 19485)
User :
Electrode connection : standard
Potential control : Ewe
Ewe ctrl range : min = -1.00 V, max = 1.00 V
Ewe,I filtering : 50 kHz
Safety Limits :
	Do not start on E overload
Channel : Floating
Acquisition started on : 02/23/2024 15:54:32.363
Loaded Setting File :  NONE
Saved on :
	File : 240223-OCV-EIS-Fe2Fe3_5mM-HCl1M-225RPM-Ag_AgCl_BLF8-GC-RDE-1minRestVSEoc-3ppf-14p1mVAmplitude_03_OCV_C15.mpr
	Directory : C:\Data\mathias\RDE-RPM-variation\
	Host : 192.168.0.1
Device : VMP-300 (SN 0826)
Address : USB
EC-Lab for windows v11.52 (software)
Internet server v11.52 (firmware)
Command interpretor v11.52 (firmware)
Electrode material :
Initial state :
Electrolyte :
Comments :
Cable : special
Reference electrode : SCE Saturated Calomel Electrode (0.241 V)
Electrode surface area : 0.001 cm²
Characteristic mass : 0.001 g
Equivalent Weight : 0.000 g/eq.
Density : 0.000 g/cm3
Volume (V) : 0.001 cm³
Record EIS quality indicators
Cycle Definition : Charge/Discharge alternance
tR (h:m:s)          0:01:0.0000
dER/dt (mV/h)       1.0
record              <Ewe>
dER (mV)            0.00
dtR (s)             0.5000
E range min (V)     -1.000
E range max (V)     1.000

mode	error	time/s	<Ewe/V>
3	0	479.193	0.458659
3	0	479.693	0.459389
3	0	480.193	0.45954
3	0	480.693	0.459594
3	0	481.193	0.45962
3	0	481.693	0.45963
3	0	482.193	0.459635
3	0	482.693	0.459638
3	0	483.193	0.459641
3	0	483.693	0.459643
3	0	484.193	0.459645
3	0	484.693	0.459647
3	0	485.193	0.459648
3	0	485.693	0.459649
3	0	486.193	0.459645
3	0	486.693	0.459644
3	0	487.193	0.459641
3	0	487.693	0.459641
3	0	488.193	0.459641
3	0	488.693	0.459644
3	0	489.193	0.459647
3	0	489.693	0.459642
3	0	490.193	0.459644
3	0	490.693	0.45964
3	0	491.193	0.45964
3	0	491.693	0.459643
3	0	492.193	0.459642
3	0	492.693	0.459642
3	0	493.193	0.459644
3	0	493.693	0.459642
3	0	494.193	0.459646
3	0	494.693	0.459648
3	0	495.193	0.459648
3	0	495.693	0.459648
3	0	496.193	0.459648
3	0	496.693	0.459649
3	0	497.193	0.45965
3	0	497.693	0.459647
3	0	498.193	0.459646
3	0	498.693	0.459647
3	0	499.193	0.459645
3	0	499.693	0.45964
3	0	500.193	0.459638
3	0	500.693	0.459638
3	0	501.193	0.459637
3	0	501.693	0.459635
3	0	502.193	0.459634
3	0	502.693	0.459632
3	0	503.193	0.459637
3	0	503.693	0.459636
3	0	504.193	0.459632
3	0	504.693	0.459632
3	0	505.193	0.459632
3	0	505.693	0.459631
3	0	506.193	0.459634
3	0	506.693	0.459634
3	0	507.193	0.459636
3	0	507.693	0.459628
3	0	508.193	0.459629
3	0	508.693	0.45963
3	0	509.193	0.459634
3	0	509.693	0.459635
3	0	510.193	0.459636
3	0	510.693	0.459635
3	0	511.193	0.459633
3	0	511.693	0.459632
3	0	512.193	0.45963
3	0	512.693	0.45963
3	0	513.193	0.459628
3	0	513.693	0.459633
3	0	514.193	0.459629
3	0	514.693	0.459629
3	0	515.193	0.459631
3	0	515.693	0.45963
3	0	516.193	0.459627
3	0	516.693	0.459627
3	0	517.193	0.459629
3	0	517.693	0.45963
3	0	518.193	0.459627
3	0	518.693	0.459623
3	0	519.193	0.459628
3	0	519.693	0.45963
3	0	520.193	0.45963
3	0	520.693	0.459628
3	0	521.193	0.459627
3	0	521.693	0.459628
3	0	522.193	0.459634
3	0	522.693	0.459632
3	0	523.193	0.459627
3	0	523.693	0.459628
3	0	524.193	0.459625
3	0	524.693	0.459624
3	0	525.193	0.45962
3	0	525.693	0.459614
3	0	526.193	0.459612
3	0	526.693	0.459611
3	0	527.193	0.459606
3	0	527.693	0.459609
3	0	528.193	0.45961
3	0	528.693	0.45961
3	0	529.193	0.45961
3	0	529.693	0.45961
3	0	530.193	0.459608
3	0	530.693	0.45961
3	0	531.193	0.459611
3	0	531.693	0.459605
3	0	532.193	0.459607
3	0	532.693	0.459607
3	0	533.193	0.459607
3	0	533.693	0.459605
3	0	534.193	0.459606
3	0	534.693	0.459607
3	0	535.193	0.459602
3	0	535.693	0.459601
3	0	536.193	0.4596
3	0	536.693	0.4596
3	0	537.193	0.459598
3	0	537.693	0.459595
3	0	538.193	0.4596
3	0	538.693	0.459599
3	0	538.852	0.4596