File: Python/Data/RDE/240219-CV-EIS-Fe2Fe3_5mM-HCl1M-2000RPM-Ag_AgCl_BLF8-GC-RDE_03_PEIS_C15.mpt
EC-Lab ASCII FILE
Nb header lines : 66

Potentio Electrochemical Impedance Spectroscopy

Run on channel : 15 (SN 19485)
User :
Electrode connection : standard
Potential control : Ewe
Ewe ctrl range : min = -1.00 V, max = 1.00 V
Ewe,I filtering : <None>
Safety Limits :
	Do not start on E overload
Channel : Floating
Acquisition started on : 02/19/2024 17:18:57.744
Loaded Setting File :  C:\Data\mathias\RDE-RPM-variation\240219-CV-EIS-Fe2Fe3_5mM-HCl1M-RPMtest-Ag_AgCl_BLF8-GC-RDE.mps
Saved on :
	File : 240219-CV-EIS-Fe2Fe3_5mM-HCl1M-2000RPM-Ag_AgCl_BLF8-GC-RDE_03_PEIS_C15.mpr
	Directory : C:\Data\mathias\RDE-RPM-variation\
	Host : 192.168.0.1
Device : VMP-300 (SN 0826)
Address : USB
EC-Lab for windows v11.52 (software)
Internet server v11.52 (firmware)
Command interpretor v11.52 (firmware)
Electrode material :
Initial state :
Electrolyte :
Comments :
Cable : special
Electrode surface area : 0.001 cm²
Characteristic mass : 0.001 g
Equivalent Weight : 0.000 g/eq.
Density : 0.000 g/cm3
Volume (V) : 0.001 cm³
Record EIS quality indicators
Cycle Definition : Charge/Discharge alternance
Mode                Single sine
E (V)               0.0000
vs.                 Ref
tE (h:m:s)          0:00:0.0000
record              0
dI                  0.000
unit dI             mA
dt (s)              0.000
fi                  400.000
unit fi             kHz
ff                  100.000
unit ff             mHz
Nd                  10
Points              per decade
spacing             Logarithmic
Va (mV)             7.0
pw                  0.10
Na                  3
corr                0
E range min (V)     -1.000
E range max (V)     1.000
I Range             Auto
Bandwidth           8
nc cycles           2
goto Ns'            0
nr cycles           0
inc. cycle          1

freq/Hz	Re(Z)/Ohm	-Im(Z)/Ohm	|Z|/Ohm	Phase(Z)/deg	time/s	<Ewe>/V	<I>/mA	Cs/µF	Cp/µF	cycle number	I Range	|Ewe|/V	|I|/A	Ns	(Q-Qo)/mA.h	THD Ewe/%	NSD Ewe/%	NSR Ewe/%	|Ewe h2|/V	|Ewe h3|/V	|Ewe h4|/V	|Ewe h5|/V	|Ewe h6|/V	|Ewe h7|/V	THD I/%	NSD I/%	NSR I/%	|I h2|/A	|I h3|/A	|I h4|/A	|I h5|/A	|I h6|/A	|I h7|/A	Re(Y)/Ohm-1	Im(Y)/Ohm-1	|Y|/Ohm-1	Phase(Y)/deg	Re(C)/nF	Im(C)/nF	|C|/nF	Phase(C)/deg	Re(M)	Im(M)	|M|	Phase(M)/deg	Re(Permittivity)	Im(Permittivity)	|Permittivity|	Phase(Permittivity)/deg	Re(Resistivity)/Ohm.cm	Im(Resistivity)/Ohm.cm	|Resistivity|/Ohm.cm	Phase(Resistivity)/deg	Re(Conductivity)/mS/cm	Im(Conductivity)/mS/cm	|Conductivity|/mS/cm	Phase(Conductivity)/deg	Tan(Delta)	Loss Angle(Delta)/deg	dq/mA.h
399996	3.6634	1.31795	3.89326	-19.7868	362.416	-0.000131554	-0.485075	0.301901	0.0345968	1	38	0.00647691	0.00166362	0	-0.000309914	-1	-1	-1	0	0	0	0	0	0	-1	-1	-1	0	0	0	0	0	0	0.241689	0.0869506	0.256854	19.7868	34.5968	96.1659	102.2	-70.2132	0.0000000E+000	0.0000000E+000	0.0000000E+000	70.2132	0.0000000E+000	0.0000000E+000	0.0000000E+000	-70.2132	0.0000000E+000	0.0000000E+000	0.0000000E+000	-19.7868	0.0000000E+000	0.0000000E+000	0.0000000E+000	19.7868	2.77962	70.2132	-0.000309914
20032.3	3.91097	2.26196	4.51798	-30.0435	377.328	-0.000100778	-0.483035	3.5124	0.880412	1	38	0.00729176	0.00161394	0	-0.00229788	0.828309	0.559551	16.2169	1.90923e-05	2.10791e-05	1.66927e-05	1.86532e-05	3.13662e-05	2.20502e-05	0.124149	0.0672401	1.94165	1.06405e-06	6.08178e-07	5.61032e-07	6.85654e-07	7.48144e-07	7.48828e-07	0.1916	0.110814	0.221338	30.0435	880.412	1522.25	1758.51	-59.9565	0.0000000E+000	0.0000000E+000	0.0000000E+000	59.9565	0.0000000E+000	0.0000000E+000	0.0000000E+000	-59.9565	0.0000000E+000	0.0000000E+000	0.0000000E+000	-30.0435	0.0000000E+000	0.0000000E+000	0.0000000E+000	30.0435	1.72902	59.9565	-0.000149745
1002.75	13.3118	26.3221	29.4967	-63.1731	392.273	-0.000241142	-0.480119	6.02985	4.80176	1	38	0.00671131	0.000227527	0	-0.00426699	1.05734	0.533796	18.6372	2.76009e-05	2.81308e-05	2.60342e-05	3.73733e-05	2.62499e-05	1.97894e-05	0.944706	0.577059	14.089	8.52556e-07	5.04691e-07	9.96522e-07	9.81231e-07	6.89421e-07	5.98288e-07	0.0152999	0.0302533	0.0339021	63.1731	4801.76	2428.38	5380.88	-26.8269	0.0000000E+000	0.0000000E+000	0.0000000E+000	26.8269	0.0000000E+000	0.0000000E+000	0.0000000E+000	-26.8269	0.0000000E+000	0.0000000E+000	0.0000000E+000	-63.1731	0.0000000E+000	0.0000000E+000	0.0000000E+000	63.1731	0.505726	26.8269	-0.000146406
50.2089	138.2	164.251	214.657	-49.923	406.811	-0.000232102	-0.471452	19.2989	11.2995	1	39	0.00660862	3.07869e-05	0	-0.00615309	0.95324	0.512784	16.9154	2.74442e-05	2.44845e-05	2.60008e-05	1.96659e-05	2.49102e-05	1.87717e-05	2.70652	1.39471	46.9024	4.09012e-07	3.76444e-07	2.55488e-07	3.50371e-07	2.91533e-07	1.72941e-07	0.00299929	0.00356467	0.0046586	49.923	11299.5	9507.32	14767.1	-40.077	0.0000000E+000	0.0000000E+000	0.0000000E+000	40.077	0.0000000E+000	0.0000000E+000	0.0000000E+000	-40.077	0.0000000E+000	0.0000000E+000	0.0000000E+000	-49.923	0.0000000E+000	0.0000000E+000	0.0000000E+000	49.923	0.841393	40.077	-0.00013854
2.51368	813.439	571.713	994.253	-35.1009	425.815	-0.000211924	-0.470349	110.747	36.618	1	40	0.00658434	6.6224e-06	0	-0.00861359	0.679259	0.35884	12.8518	1.43169e-05	1.61087e-05	2.11194e-05	1.51671e-05	1.9898e-05	1.86227e-05	8.41097	20.8334	19.6119	3.28317e-07	2.81847e-07	1.42243e-07	1.88804e-07	1.07917e-07	5.54308e-08	0.00082287	0.000578341	0.00100578	35.1009	36618	52100.5	63681.6	-54.8991	0.0000000E+000	0.0000000E+000	0.0000000E+000	54.8991	0.0000000E+000	0.0000000E+000	0.0000000E+000	-54.8991	0.0000000E+000	0.0000000E+000	0.0000000E+000	-35.1009	0.0000000E+000	0.0000000E+000	0.0000000E+000	35.1009	1.42281	54.8991	-0.000364642
0.125939	1575.6	9.02505	1575.63	-0.328187	654.055	-0.000218591	-0.464403	140027	4.59413	1	40	0.00658923	4.18197e-06	0	-0.0381997	0.17753	0.102325	2.81267	1.95041e-06	7.0296e-06	4.75298e-06	4.5045e-06	3.78056e-06	3.50324e-06	21.4732	5.99888	43.4424	3.54367e-07	3.59467e-07	4.39177e-07	3.02162e-07	3.26689e-07	3.17288e-07	0.000634657	3.63532e-06	0.000634668	0.328187	4594.12	802048	802061	-89.6718	0.0000000E+000	0.0000000E+000	0.0000000E+000	89.6718	0.0000000E+000	0.0000000E+000	0.0000000E+000	-89.6718	0.0000000E+000	0.0000000E+000	0.0000000E+000	-0.328187	0.0000000E+000	0.0000000E+000	0.0000000E+000	0.328187	174.581	89.6718	-0.0062955
31751	3.74498	1.64964	4.09221	-23.7731	730.319	-0.000146466	-0.463728	3.03861	0.493782	2	38	0.00725674	0.00177331	0	-0.0479971	0.800168	0.585087	15.9749	1.78684e-05	1.5815e-05	1.36092e-05	1.92519e-05	2.47372e-05	2.98211e-05	0.0991052	0.0613892	1.77346	5.14544e-07	6.6962e-07	7.84624e-07	9.29538e-07	4.17751e-07	7.30634e-07	0.223632	0.0985083	0.244367	23.7731	493.782	1120.98	1224.91	-66.2269	0.0000000E+000	0.0000000E+000	0.0000000E+000	66.2269	0.0000000E+000	0.0000000E+000	0.0000000E+000	-66.2269	0.0000000E+000	0.0000000E+000	0.0000000E+000	-23.7731	0.0000000E+000	0.0000000E+000	0.0000000E+000	23.7731	2.27019	66.2269	-0.000143595
1589.49	9.91417	19.2822	21.6816	-62.7895	745.343	-0.000265692	-0.466255	5.19285	4.10709	2	38	0.00682372	0.000314724	0	-0.0499087	1.0959	0.51521	17.5577	2.38528e-05	3.08847e-05	3.2686e-05	3.79973e-05	2.07026e-05	2.94753e-05	0.838235	0.320991	10.3234	9.21557e-07	1.17393e-06	1.06545e-06	1.41974e-06	8.28426e-07	6.7207e-07	0.0210898	0.0410178	0.046122	62.7895	4107.09	2111.71	4618.17	-27.2105	0.0000000E+000	0.0000000E+000	0.0000000E+000	27.2105	0.0000000E+000	0.0000000E+000	0.0000000E+000	-27.2105	0.0000000E+000	0.0000000E+000	0.0000000E+000	-62.7895	0.0000000E+000	0.0000000E+000	0.0000000E+000	62.7895	0.514162	27.2105	-0.000141591
79.6177	107.267	128.131	167.105	-50.065	759.951	-0.000213852	-0.462649	15.6011	9.17253	2	39	0.00657183	3.93277e-05	0	-0.0517642	0.954901	0.523259	18.0349	3.29792e-05	1.33183e-05	2.57321e-05	2.00403e-05	2.20171e-05	2.34389e-05	1.99241	1.18926	38.059	4.73803e-07	2.68913e-07	1.96789e-07	2.874e-07	2.07781e-07	2.80718e-07	0.00384141	0.00458858	0.00598427	50.065	9172.53	7678.95	11962.5	-39.935	0.0000000E+000	0.0000000E+000	0.0000000E+000	39.935	0.0000000E+000	0.0000000E+000	0.0000000E+000	-39.935	0.0000000E+000	0.0000000E+000	0.0000000E+000	-50.065	0.0000000E+000	0.0000000E+000	0.0000000E+000	50.065	0.837168	39.935	-0.000135818
3.98597	535.948	427.619	685.637	-38.5855	775.992	-0.000220302	-0.462674	93.3747	36.3207	2	40	0.00658247	9.60052e-06	0	-0.0537975	1.05913	0.432741	17.7627	2.83224e-05	1.27136e-05	3.11519e-05	2.13728e-05	3.53492e-05	1.73679e-05	4.09804	13.1589	16.6054	2.94757e-07	1.85813e-07	1.03168e-07	5.03123e-08	4.77623e-08	3.76665e-08	0.00114008	0.000909638	0.0014585	38.5855	36320.7	45521.9	58236.1	-51.4145	0.0000000E+000	0.0000000E+000	0.0000000E+000	51.4145	0.0000000E+000	0.0000000E+000	0.0000000E+000	-51.4145	0.0000000E+000	0.0000000E+000	0.0000000E+000	-38.5855	0.0000000E+000	0.0000000E+000	0.0000000E+000	38.5855	1.25333	51.4145	-0.0002445
0.199573	1384.88	150.384	1393.02	-6.19749	921.685	-0.000213826	-0.458413	5302.91	61.8026	2	40	0.00658981	4.7306e-06	0	-0.0723724	0.253543	0.123302	3.52876	3.08048e-06	1.10638e-05	3.95374e-06	6.95023e-06	5.83143e-06	4.10146e-06	16.9197	11.6798	36.0279	3.53195e-07	3.84127e-07	2.79008e-07	2.16055e-07	2.8269e-07	2.55423e-07	0.00071367	7.74978e-05	0.000717866	6.19749	61802.6	569135	572480	-83.8025	0.0000000E+000	0.0000000E+000	0.0000000E+000	83.8025	0.0000000E+000	0.0000000E+000	0.0000000E+000	-83.8025	0.0000000E+000	0.0000000E+000	0.0000000E+000	-6.19749	0.0000000E+000	0.0000000E+000	0.0000000E+000	6.19749	9.20891	83.8025	-0.00393162
50326.6	3.62823	1.17822	3.81474	-17.9905	1083.46	-0.000127546	-0.455247	2.68409	0.256046	3	38	0.00724921	0.00190032	0	-0.0928584	0.736651	0.576001	17.2709	2.42769e-05	1.36222e-05	1.82045e-05	2.25958e-05	1.90828e-05	2.10628e-05	0.0899497	0.0757189	1.61933	5.26085e-07	7.22063e-07	7.66736e-07	5.95994e-07	7.5023e-07	5.10955e-07	0.249324	0.0809647	0.262141	17.9905	256.046	788.474	829.006	-72.0095	0.0000000E+000	0.0000000E+000	0.0000000E+000	72.0095	0.0000000E+000	0.0000000E+000	0.0000000E+000	-72.0095	0.0000000E+000	0.0000000E+000	0.0000000E+000	-17.9905	0.0000000E+000	0.0000000E+000	0.0000000E+000	17.9905	3.07942	72.0095	-0.000142165
2519.19	7.47618	13.4021	15.3463	-60.8456	1098.34	-0.000227702	-0.457472	4.71396	3.5952	3	38	0.00641184	0.00041781	0	-0.0947136	0.993036	0.402926	18.3219	2.53333e-05	1.84486e-05	3.53986e-05	1.67532e-05	2.53558e-05	2.41188e-05	0.639385	0.176181	7.67536	1.68777e-06	1.01775e-06	1.14931e-06	6.69125e-07	6.88906e-07	6.55294e-07	0.0317447	0.0569068	0.0651622	60.8456	3595.2	2005.53	4116.75	-29.1544	0.0000000E+000	0.0000000E+000	0.0000000E+000	29.1544	0.0000000E+000	0.0000000E+000	0.0000000E+000	-29.1544	0.0000000E+000	0.0000000E+000	0.0000000E+000	-60.8456	0.0000000E+000	0.0000000E+000	0.0000000E+000	60.8456	0.557836	29.1544	-0.000139585
126.171	77.0381	103.116	128.716	-53.2364	1113.19	-0.000214803	-0.453505	12.2331	7.85095	3	39	0.0066201	5.1432e-05	0	-0.0965702	1.02092	0.653809	17.8937	3.47285e-05	1.94111e-05	3.33914e-05	2.34106e-05	1.32614e-05	2.65764e-05	1.71548	0.897962	28.8244	4.4415e-07	1.69832e-07	3.61069e-07	4.34897e-07	2.78315e-07	2.8439e-07	0.0046499	0.00622389	0.00776907	53.2364	7850.95	5865.48	9800.07	-36.7636	0.0000000E+000	0.0000000E+000	0.0000000E+000	36.7636	0.0000000E+000	0.0000000E+000	0.0000000E+000	-36.7636	0.0000000E+000	0.0000000E+000	0.0000000E+000	-53.2364	0.0000000E+000	0.0000000E+000	0.0000000E+000	53.2364	0.747104	36.7636	-0.000137836
6.31569	430.935	353.301	557.249	-39.3465	1127.88	-0.000226463	-0.453424	71.3272	28.6712	3	40	0.00657439	1.17979e-05	0	-0.098398	1.43501	0.870412	23.3626	4.02911e-05	3.60473e-05	4.75632e-05	2.08933e-05	3.93987e-05	3.46013e-05	4.70886	11.1179	17.9853	4.6262e-07	1.64223e-07	1.47767e-07	1.36811e-07	8.26463e-08	8.31057e-08	0.00138776	0.00113775	0.00179453	39.3465	28671.2	34971.4	45222.1	-50.6535	0.0000000E+000	0.0000000E+000	0.0000000E+000	50.6535	0.0000000E+000	0.0000000E+000	0.0000000E+000	-50.6535	0.0000000E+000	0.0000000E+000	0.0000000E+000	-39.3465	0.0000000E+000	0.0000000E+000	0.0000000E+000	39.3465	1.21974	50.6535	-0.000171998
0.316193	1194.15	142.253	1202.59	-6.79337	1221.59	-0.00021364	-0.451503	3538.4	49.5103	3	40	0.00659054	5.4803e-06	0	-0.110149	0.279102	0.110086	4.39488	5.30543e-06	7.70406e-06	7.80867e-06	6.41019e-06	6.95082e-06	6.409e-06	19.5897	15.4869	29.6702	6.78453e-07	4.63127e-07	2.46776e-07	2.03598e-07	2.68342e-07	4.11897e-07	0.000825702	9.8362e-05	0.00083154	6.79337	49510.3	415615	418553	-83.2066	0.0000000E+000	0.0000000E+000	0.0000000E+000	83.2066	0.0000000E+000	0.0000000E+000	0.0000000E+000	-83.2066	0.0000000E+000	0.0000000E+000	0.0000000E+000	-6.79337	0.0000000E+000	0.0000000E+000	0.0000000E+000	6.79337	8.39452	83.2066	-0.00245915
0.0999518	1227.39	51.0567	1228.45	-2.38201	1426.17	-0.000211045	-0.447434	31187.2	53.8726	3	40	0.00658569	5.36098e-06	0	-0.135662	0.207218	0.10771	2.57112	4.25615e-06	9.02554e-06	4.04129e-06	4.19952e-06	3.64687e-06	3.36304e-06	12.9652	8.05302	33.108	2.4675e-07	1.95669e-07	1.68909e-07	3.52978e-07	1.85752e-07	3.87387e-07	0.000813331	3.38329e-05	0.000814035	2.38201	53872.7	1.29508e+06	1.2962e+06	-87.618	0.0000000E+000	0.0000000E+000	0.0000000E+000	87.618	0.0000000E+000	0.0000000E+000	0.0000000E+000	-87.618	0.0000000E+000	0.0000000E+000	0.0000000E+000	-2.38201	0.0000000E+000	0.0000000E+000	0.0000000E+000	2.38201	24.0397	87.618	-0.00763041