File: Python/Data/RDE/240219-EIS-Fe2Fe3_5mM-HCl1M-226RPM-Ag_AgCl_BLF8-GC-RDE_C15.mpt
EC-Lab ASCII FILE
Nb header lines : 66

Potentio Electrochemical Impedance Spectroscopy

Run on channel : 15 (SN 19485)
User :
Electrode connection : standard
Potential control : Ewe
Ewe ctrl range : min = -1.00 V, max = 1.00 V
Ewe,I filtering : <None>
Safety Limits :
	Do not start on E overload
Channel : Floating
Acquisition started on : 02/19/2024 15:59:30.354
Loaded Setting File :  NONE
Saved on :
	File : 240219-EIS-Fe2Fe3_5mM-HCl1M-226RPM-Ag_AgCl_BLF8-GC-RDE_C15.mpr
	Directory : C:\Data\mathias\RDE-RPM-variation\
	Host : 192.168.0.1
Device : VMP-300 (SN 0826)
Address : USB
EC-Lab for windows v11.52 (software)
Internet server v11.52 (firmware)
Command interpretor v11.52 (firmware)
Electrode material :
Initial state :
Electrolyte :
Comments :
Cable : special
Electrode surface area : 0.001 cm²
Characteristic mass : 0.001 g
Equivalent Weight : 0.000 g/eq.
Density : 0.000 g/cm3
Volume (V) : 0.001 cm³
Record EIS quality indicators
Cycle Definition : Charge/Discharge alternance
Mode                Single sine
E (V)               0.0000
vs.                 Ref
tE (h:m:s)          0:00:30.0000
record              0
dI                  0.000
unit dI             mA
dt (s)              0.000
fi                  400.000
unit fi             kHz
ff                  100.000
unit ff             mHz
Nd                  10
Points              per decade
spacing             Logarithmic
Va (mV)             7.0
pw                  0.10
Na                  3
corr                0
E range min (V)     -1.000
E range max (V)     1.000
I Range             Auto
Bandwidth           8
nc cycles           2
goto Ns'            0
nr cycles           0
inc. cycle          1

freq/Hz	Re(Z)/Ohm	-Im(Z)/Ohm	|Z|/Ohm	Phase(Z)/deg	time/s	<Ewe>/V	<I>/mA	Cs/µF	Cp/µF	cycle number	I Range	|Ewe|/V	|I|/A	Ns	(Q-Qo)/mA.h	THD Ewe/%	NSD Ewe/%	NSR Ewe/%	|Ewe h2|/V	|Ewe h3|/V	|Ewe h4|/V	|Ewe h5|/V	|Ewe h6|/V	|Ewe h7|/V	THD I/%	NSD I/%	NSR I/%	|I h2|/A	|I h3|/A	|I h4|/A	|I h5|/A	|I h6|/A	|I h7|/A	Re(Y)/Ohm-1	Im(Y)/Ohm-1	|Y|/Ohm-1	Phase(Y)/deg	Re(C)/nF	Im(C)/nF	|C|/nF	Phase(C)/deg	Re(M)	Im(M)	|M|	Phase(M)/deg	Re(Permittivity)	Im(Permittivity)	|Permittivity|	Phase(Permittivity)/deg	Re(Resistivity)/Ohm.cm	Im(Resistivity)/Ohm.cm	|Resistivity|/Ohm.cm	Phase(Resistivity)/deg	Re(Conductivity)/mS/cm	Im(Conductivity)/mS/cm	|Conductivity|/mS/cm	Phase(Conductivity)/deg	Tan(Delta)	Loss Angle(Delta)/deg	dq/mA.h
399996	3.73934	1.3024	3.95966	-19.2031	32.1955	-0.000136083	-0.178381	0.305506	0.0330517	1	38	0.00650287	0.00164228	0	-0.00156076	-1	-1	-1	0	0	0	0	0	0	-1	-1	-1	0	0	0	0	0	0	0.238495	0.0830671	0.252547	19.2031	33.0517	94.895	100.486	-70.7969	0.0000000E+000	0.0000000E+000	0.0000000E+000	70.7969	0.0000000E+000	0.0000000E+000	0.0000000E+000	-70.7969	0.0000000E+000	0.0000000E+000	0.0000000E+000	-19.2031	0.0000000E+000	0.0000000E+000	0.0000000E+000	19.2031	2.87111	70.7969	-0.00156076
20032.3	3.89616	2.45639	4.60586	-32.23	47.1085	-0.00012186	-0.178791	3.23439	0.919954	1	38	0.00730602	0.00158625	0	-0.00229506	0.731125	0.480871	14.2761	1.24522e-05	1.80116e-05	2.78166e-05	2.14743e-05	1.94857e-05	1.79518e-05	0.120022	0.240681	1.80445	6.71018e-07	1.02208e-06	5.39536e-07	9.2921e-07	4.20265e-07	7.04174e-07	0.183661	0.115791	0.217115	32.23	919.954	1459.17	1724.96	-57.77	0.0000000E+000	0.0000000E+000	0.0000000E+000	57.77	0.0000000E+000	0.0000000E+000	0.0000000E+000	-57.77	0.0000000E+000	0.0000000E+000	0.0000000E+000	-32.23	0.0000000E+000	0.0000000E+000	0.0000000E+000	32.23	1.58613	57.77	-5.79746e-05
1002.75	12.2964	33.1648	35.3709	-69.6569	62.3002	-0.000251805	-0.174568	4.78575	4.20737	1	39	0.00723281	0.000204484	0	-0.0030352	0.779603	0.500928	14.3516	1.85842e-05	2.47563e-05	1.58283e-05	2.96321e-05	1.49884e-05	1.75121e-05	0.662761	0.169424	6.42217	9.9802e-07	7.10884e-07	1.54477e-07	2.80176e-07	2.02591e-07	3.04539e-07	0.00982844	0.0265084	0.0282718	69.6569	4207.37	1559.95	4487.25	-20.3431	0.0000000E+000	0.0000000E+000	0.0000000E+000	20.3431	0.0000000E+000	0.0000000E+000	0.0000000E+000	-20.3431	0.0000000E+000	0.0000000E+000	0.0000000E+000	-69.6569	0.0000000E+000	0.0000000E+000	0.0000000E+000	69.6569	0.370767	20.3431	-6.44051e-05
50.2089	154.36	318.653	354.072	-64.1539	76.8409	-0.000188464	-0.173996	9.94767	8.05704	1	40	0.00644556	1.82041e-05	0	-0.00373011	1.89281	1.48826	31.9586	7.83851e-05	2.90344e-05	3.3227e-05	3.36862e-05	3.81506e-05	5.16166e-05	1.0631	0.716053	14.7218	1.217e-07	5.55584e-08	3.7655e-08	6.88318e-08	5.21219e-08	8.92982e-08	0.00123127	0.00254177	0.00282429	64.1539	8057.04	3902.93	8952.59	-25.8461	0.0000000E+000	0.0000000E+000	0.0000000E+000	25.8461	0.0000000E+000	0.0000000E+000	0.0000000E+000	-25.8461	0.0000000E+000	0.0000000E+000	0.0000000E+000	-64.1539	0.0000000E+000	0.0000000E+000	0.0000000E+000	64.1539	0.484413	25.8461	-5.10826e-05
2.51368	1435.91	1877.7	2363.81	-52.5942	95.5868	-0.000208742	-0.172711	33.7198	21.2771	1	40	0.00643503	2.72231e-06	0	-0.00462597	0.664084	0.310784	11.5492	1.69465e-05	2.27362e-05	1.81591e-05	1.51331e-05	1.06617e-05	1.2897e-05	3.06534	10.3137	37.0967	4.69075e-08	3.29481e-08	4.38559e-08	1.88422e-08	2.92468e-08	1.79138e-08	0.000256982	0.000336048	0.000423046	52.5942	21277.1	16271	26785.4	-37.4058	0.0000000E+000	0.0000000E+000	0.0000000E+000	37.4058	0.0000000E+000	0.0000000E+000	0.0000000E+000	-37.4058	0.0000000E+000	0.0000000E+000	0.0000000E+000	-52.5942	0.0000000E+000	0.0000000E+000	0.0000000E+000	52.5942	0.764719	37.4058	-0.000134271
0.125939	7847.92	2193.1	8148.59	-15.613	323.828	-0.000240367	-0.173614	576.24	41.7402	1	40	0.00643328	7.89497e-07	0	-0.0156083	0.210736	0.122532	2.5146	4.93606e-06	8.73235e-06	4.37666e-06	1.88977e-06	4.6668e-06	4.36266e-06	94.811	113.064	94.1754	3.77637e-07	2.40776e-07	3.21801e-07	2.75868e-07	2.09036e-07	5.10491e-08	0.000118192	3.30288e-05	0.000122721	15.613	41740.2	149366	155088	-74.387	0.0000000E+000	0.0000000E+000	0.0000000E+000	74.387	0.0000000E+000	0.0000000E+000	0.0000000E+000	-74.387	0.0000000E+000	0.0000000E+000	0.0000000E+000	-15.613	0.0000000E+000	0.0000000E+000	0.0000000E+000	15.613	3.57846	74.387	-0.00234671
31751	3.75908	1.72853	4.13745	-24.6943	400.09	-0.000108719	-0.173983	2.89992	0.506143	2	38	0.00724715	0.0017516	0	-0.0192769	0.668485	0.925132	14.706	1.94926e-05	2.09188e-05	2.22925e-05	1.57695e-05	1.61812e-05	1.38046e-05	0.0922756	0.155965	1.60189	5.41264e-07	6.15286e-07	6.58164e-07	7.51748e-07	4.20275e-07	5.07006e-07	0.219592	0.100974	0.241695	24.6943	506.143	1100.72	1211.52	-65.3057	0.0000000E+000	0.0000000E+000	0.0000000E+000	65.3057	0.0000000E+000	0.0000000E+000	0.0000000E+000	-65.3057	0.0000000E+000	0.0000000E+000	0.0000000E+000	-24.6943	0.0000000E+000	0.0000000E+000	0.0000000E+000	24.6943	2.17473	65.3057	-5.16494e-05
1589.49	9.11154	23.3513	25.066	-68.6846	415.109	-0.000272086	-0.176495	4.28796	3.72137	2	38	0.00647716	0.000258404	0	-0.0199957	0.793706	0.654337	16.6255	1.75813e-05	1.64361e-05	1.9481e-05	1.26149e-05	3.21208e-05	1.31395e-05	0.79646	0.2588	11.2755	8.26924e-07	8.29369e-07	5.35962e-07	1.13159e-06	7.40323e-07	5.26749e-07	0.0145018	0.0371656	0.0398947	68.6846	3721.38	1452.06	3994.63	-21.3154	0.0000000E+000	0.0000000E+000	0.0000000E+000	21.3154	0.0000000E+000	0.0000000E+000	0.0000000E+000	-21.3154	0.0000000E+000	0.0000000E+000	0.0000000E+000	-68.6846	0.0000000E+000	0.0000000E+000	0.0000000E+000	68.6846	0.390194	21.3154	-5.38067e-05
79.6177	108.521	238.029	261.6	-65.4911	429.968	-0.000246846	-0.172635	8.3981	6.95288	2	40	0.00635725	2.43014e-05	0	-0.0207004	1.54247	0.722579	31.2695	2.92594e-05	5.08576e-05	3.47056e-05	3.22884e-05	4.5594e-05	2.44663e-05	0.661381	0.256347	10.8772	6.2221e-08	1.04463e-07	4.20017e-08	3.9295e-08	5.83912e-08	4.2782e-08	0.00158576	0.0034782	0.00382263	65.4911	6952.88	3169.92	7641.4	-24.5089	0.0000000E+000	0.0000000E+000	0.0000000E+000	24.5089	0.0000000E+000	0.0000000E+000	0.0000000E+000	-24.5089	0.0000000E+000	0.0000000E+000	0.0000000E+000	-65.4911	0.0000000E+000	0.0000000E+000	0.0000000E+000	65.4911	0.455915	24.5089	-5.08646e-05
3.98597	1098.9	1351.89	1742.18	-50.8939	445.973	-0.00020819	-0.173505	29.5354	17.7846	2	40	0.00689146	3.95565e-06	0	-0.0214646	0.9131	0.397105	14.5931	2.9911e-05	2.09956e-05	3.33655e-05	1.31865e-05	1.7498e-05	2.36677e-05	3.22687	8.49444	34.0388	9.76833e-08	3.4383e-08	3.52497e-08	1.43518e-08	3.47277e-08	4.96953e-08	0.000362052	0.000445407	0.000573994	50.8939	17784.6	14456.3	22918.9	-39.1061	0.0000000E+000	0.0000000E+000	0.0000000E+000	39.1061	0.0000000E+000	0.0000000E+000	0.0000000E+000	-39.1061	0.0000000E+000	0.0000000E+000	0.0000000E+000	-50.8939	0.0000000E+000	0.0000000E+000	0.0000000E+000	50.8939	0.812856	39.1061	-9.21403e-05
0.199573	2257.02	8380.8	8679.4	-74.9273	591.664	-0.000219893	-0.174402	95.1551	88.7204	2	40	0.00689527	7.94441e-07	0	-0.0284509	0.208019	0.0945961	3.07025	3.5333e-06	3.95974e-06	6.64141e-06	6.35797e-06	8.00911e-06	2.47645e-06	102.222	190.989	82.977	2.66741e-07	3.31201e-07	3.83493e-07	1.50049e-07	1.04466e-07	5.22201e-08	2.99611e-05	0.000111252	0.000115215	74.9273	88720.4	23893.2	91881.4	-15.0727	0.0000000E+000	0.0000000E+000	0.0000000E+000	15.0727	0.0000000E+000	0.0000000E+000	0.0000000E+000	-15.0727	0.0000000E+000	0.0000000E+000	0.0000000E+000	-74.9273	0.0000000E+000	0.0000000E+000	0.0000000E+000	74.9273	0.269309	15.0727	-0.0014834
50326.6	3.66312	1.25656	3.87265	-18.9335	753.283	-0.000131703	-0.174631	2.51675	0.264966	3	38	0.00726635	0.00187633	0	-0.0362109	0.601125	0.665633	13.8639	1.32482e-05	2.61393e-05	1.82026e-05	1.3481e-05	8.5643e-06	1.31814e-05	0.100903	0.13759	1.49226	5.43094e-07	9.82534e-07	7.01464e-07	9.16746e-07	6.50908e-07	4.87393e-07	0.24425	0.0837852	0.258221	18.9335	264.966	772.428	816.61	-71.0665	0.0000000E+000	0.0000000E+000	0.0000000E+000	71.0665	0.0000000E+000	0.0000000E+000	0.0000000E+000	-71.0665	0.0000000E+000	0.0000000E+000	0.0000000E+000	-18.9335	0.0000000E+000	0.0000000E+000	0.0000000E+000	18.9335	2.9152	71.0665	-5.51583e-05
2519.19	6.95104	15.9504	17.3992	-66.4528	767.977	-0.000255272	-0.175674	3.96085	3.32869	3	38	0.00655323	0.00037664	0	-0.0369127	0.903471	0.535195	14.9962	2.74867e-05	3.6901e-05	1.32418e-05	1.69652e-05	1.88786e-05	1.71523e-05	0.590204	0.216829	7.45563	7.88623e-07	1.24402e-06	7.8874e-07	1.01304e-06	5.90865e-07	5.1819e-07	0.0229611	0.0526882	0.057474	66.4528	3328.69	1450.61	3631.04	-23.5472	0.0000000E+000	0.0000000E+000	0.0000000E+000	23.5472	0.0000000E+000	0.0000000E+000	0.0000000E+000	-23.5472	0.0000000E+000	0.0000000E+000	0.0000000E+000	-66.4528	0.0000000E+000	0.0000000E+000	0.0000000E+000	66.4528	0.435792	23.5472	-5.38111e-05
126.171	75.7675	172.191	188.123	-66.2495	782.829	-0.0002313	-0.173263	7.32573	6.13741	3	39	0.00690905	3.67262e-05	0	-0.0376222	0.627708	0.51996	14.86	1.67447e-05	1.3302e-05	1.24748e-05	2.55626e-05	1.18487e-05	1.69944e-05	1.47747	1.01325	34.1596	1.64383e-07	1.55949e-07	1.73766e-07	2.80879e-07	1.35451e-07	2.15338e-07	0.00214091	0.00486547	0.00531567	66.2495	6137.41	2700.59	6705.3	-23.7505	0.0000000E+000	0.0000000E+000	0.0000000E+000	23.7505	0.0000000E+000	0.0000000E+000	0.0000000E+000	-23.7505	0.0000000E+000	0.0000000E+000	0.0000000E+000	-66.2495	0.0000000E+000	0.0000000E+000	0.0000000E+000	66.2495	0.440022	23.7505	-5.2831e-05
6.31569	823.673	1109.08	1381.48	-53.4001	797.517	-0.000205548	-0.172315	22.7215	14.6444	3	40	0.00688989	4.98731e-06	0	-0.0383154	0.787802	0.345687	19.7321	2.39898e-05	2.33138e-05	1.5083e-05	1.40261e-05	2.07695e-05	2.43165e-05	1.86431	1.09248	36.8635	6.17217e-08	2.12583e-08	3.04699e-08	2.04391e-08	1.85272e-08	4.39014e-08	0.000431582	0.000581127	0.000723859	53.4001	14644.4	10875.8	18241.2	-36.5999	0.0000000E+000	0.0000000E+000	0.0000000E+000	36.5999	0.0000000E+000	0.0000000E+000	0.0000000E+000	-36.5999	0.0000000E+000	0.0000000E+000	0.0000000E+000	-53.4001	0.0000000E+000	0.0000000E+000	0.0000000E+000	53.4001	0.742663	36.5999	-6.53756e-05
0.316193	3176.97	4510.41	5516.97	-54.8406	891.218	-0.000207088	-0.172404	111.597	74.5904	3	40	0.00689428	1.24965e-06	0	-0.0428002	0.200858	0.151552	3.72083	6.03396e-06	9.14977e-06	2.65674e-06	3.49069e-06	3.74406e-06	5.25766e-06	27.9143	104.678	39.0954	2.06446e-07	1.23722e-07	1.13336e-07	4.45703e-08	7.06693e-08	2.73458e-08	0.000104379	0.000148189	0.000181259	54.8406	74590.4	52538.7	91236.3	-35.1594	0.0000000E+000	0.0000000E+000	0.0000000E+000	35.1594	0.0000000E+000	0.0000000E+000	0.0000000E+000	-35.1594	0.0000000E+000	0.0000000E+000	0.0000000E+000	-54.8406	0.0000000E+000	0.0000000E+000	0.0000000E+000	54.8406	0.704363	35.1595	-0.000938397
0.0999518	4514.62	2600.27	5209.92	-29.9405	1095.8	-0.000234197	-0.172686	612.366	152.541	3	40	0.00689483	1.3234e-06	0	-0.0526075	0.171847	0.10479	2.22461	3.84432e-06	6.2058e-06	4.4454e-06	5.3008e-06	3.13214e-06	3.33328e-06	68.5721	43.3809	53.4322	3.57721e-07	6.02582e-07	3.22461e-07	3.25889e-07	1.34391e-07	6.64242e-08	0.000166326	9.5798e-05	0.000191942	29.9405	152541	264844	305632	-60.0595	0.0000000E+000	0.0000000E+000	0.0000000E+000	60.0595	0.0000000E+000	0.0000000E+000	0.0000000E+000	-60.0595	0.0000000E+000	0.0000000E+000	0.0000000E+000	-29.9405	0.0000000E+000	0.0000000E+000	0.0000000E+000	29.9405	1.73621	60.0595	-0.00294162