File: Python/Data/RDE/240223-OCV-EIS-Fe2Fe3_5mM-HCl1M-0RPM-Ag_AgCl_BLF8-GC-RDE-1minRestVSEoc-3ppf-14p1mVAmplitude_07_OCV_C15.mpt
EC-Lab ASCII FILE
Nb header lines : 47

Open Circuit Voltage

Run on channel : 15 (SN 19485)
User :
Electrode connection : standard
Potential control : Ewe
Ewe ctrl range : min = -1.00 V, max = 1.00 V
Ewe,I filtering : 50 kHz
Safety Limits :
	Do not start on E overload
Channel : Floating
Acquisition started on : 02/23/2024 16:29:27.631
Loaded Setting File :  NONE
Saved on :
	File : 240223-OCV-EIS-Fe2Fe3_5mM-HCl1M-0RPM-Ag_AgCl_BLF8-GC-RDE-1minRestVSEoc-3ppf-14p1mVAmplitude_07_OCV_C15.mpr
	Directory : C:\Data\mathias\RDE-RPM-variation\
	Host : 192.168.0.1
Device : VMP-300 (SN 0826)
Address : USB
EC-Lab for windows v11.52 (software)
Internet server v11.52 (firmware)
Command interpretor v11.52 (firmware)
Electrode material :
Initial state :
Electrolyte :
Comments :
Cable : special
Reference electrode : SCE Saturated Calomel Electrode (0.241 V)
Electrode surface area : 0.001 cm²
Characteristic mass : 0.001 g
Equivalent Weight : 0.000 g/eq.
Density : 0.000 g/cm3
Volume (V) : 0.001 cm³
Record EIS quality indicators
Cycle Definition : Charge/Discharge alternance
tR (h:m:s)          0:01:0.0000
dER/dt (mV/h)       1.0
record              <Ewe>
dER (mV)            0.00
dtR (s)             0.5000
E range min (V)     -1.000
E range max (V)     1.000

mode	error	time/s	<Ewe/V>
3	0	1447.17	0.458147
3	0	1447.67	0.458621
3	0	1448.17	0.458795
3	0	1448.67	0.458886
3	0	1449.17	0.458942
3	0	1449.67	0.458983
3	0	1450.17	0.459016
3	0	1450.67	0.459037
3	0	1451.17	0.459057
3	0	1451.67	0.459075
3	0	1452.17	0.459091
3	0	1452.67	0.459106
3	0	1453.17	0.459119
3	0	1453.67	0.459127
3	0	1454.17	0.459135
3	0	1454.67	0.459145
3	0	1455.17	0.459154
3	0	1455.67	0.459163
3	0	1456.17	0.459171
3	0	1456.67	0.459176
3	0	1457.17	0.45918
3	0	1457.67	0.459184
3	0	1458.17	0.459188
3	0	1458.67	0.459189
3	0	1459.17	0.459192
3	0	1459.67	0.459194
3	0	1460.17	0.459197
3	0	1460.67	0.459201
3	0	1461.17	0.459202
3	0	1461.67	0.459205
3	0	1462.17	0.459207
3	0	1462.67	0.459208
3	0	1463.17	0.459215
3	0	1463.67	0.459216
3	0	1464.17	0.459223
3	0	1464.67	0.459227
3	0	1465.17	0.45923
3	0	1465.67	0.45923
3	0	1466.17	0.459234
3	0	1466.67	0.459239
3	0	1467.17	0.459241
3	0	1467.67	0.459239
3	0	1468.17	0.45924
3	0	1468.67	0.45924
3	0	1469.17	0.45924
3	0	1469.67	0.459243
3	0	1470.17	0.459244
3	0	1470.67	0.459245
3	0	1471.17	0.459244
3	0	1471.67	0.459248
3	0	1472.17	0.459251
3	0	1472.67	0.45925
3	0	1473.17	0.459252
3	0	1473.67	0.459254
3	0	1474.17	0.459257
3	0	1474.67	0.45926
3	0	1475.17	0.459263
3	0	1475.67	0.459262
3	0	1476.17	0.459263
3	0	1476.67	0.459262
3	0	1477.17	0.459263
3	0	1477.67	0.459267
3	0	1478.17	0.459268
3	0	1478.67	0.459269
3	0	1479.17	0.459272
3	0	1479.67	0.459272
3	0	1480.17	0.459278
3	0	1480.67	0.459279
3	0	1481.17	0.459277
3	0	1481.67	0.459278
3	0	1482.17	0.459276
3	0	1482.67	0.459278
3	0	1483.17	0.459278
3	0	1483.67	0.459278
3	0	1484.17	0.459279
3	0	1484.67	0.45928
3	0	1485.17	0.459281
3	0	1485.67	0.459281
3	0	1486.17	0.459281
3	0	1486.67	0.459281
3	0	1487.17	0.459282
3	0	1487.67	0.459281
3	0	1488.17	0.459283
3	0	1488.67	0.459284
3	0	1489.17	0.459284
3	0	1489.67	0.459285
3	0	1490.17	0.459289
3	0	1490.67	0.45929
3	0	1491.17	0.45929
3	0	1491.67	0.459288
3	0	1492.17	0.459289
3	0	1492.67	0.45929
3	0	1493.17	0.45929
3	0	1493.67	0.459291
3	0	1494.17	0.459292
3	0	1494.67	0.459292
3	0	1495.17	0.459294
3	0	1495.67	0.459294
3	0	1496.17	0.459294
3	0	1496.67	0.459294
3	0	1497.17	0.459294
3	0	1497.67	0.459299
3	0	1498.17	0.459299
3	0	1498.67	0.4593
3	0	1499.17	0.4593
3	0	1499.67	0.459301
3	0	1500.17	0.459299
3	0	1500.67	0.459301
3	0	1501.17	0.459301
3	0	1501.67	0.459304
3	0	1502.17	0.459305
3	0	1502.67	0.459304
3	0	1503.17	0.459302
3	0	1503.67	0.459305
3	0	1504.17	0.459307
3	0	1504.67	0.459307
3	0	1505.17	0.459308
3	0	1505.67	0.459309
3	0	1506.17	0.45931
3	0	1506.67	0.459311
3	0	1506.83	0.459312