File: Python/Data/RDE/240222-CV-EIS-Fe2Fe3_5mM-HCl1M-0RPM-Ag_AgCl_BLF8-GC-RDE-DefaultSettings_03_PEIS_C15.mpt
EC-Lab ASCII FILE
Nb header lines : 66

Potentio Electrochemical Impedance Spectroscopy

Run on channel : 15 (SN 19485)
User :
Electrode connection : standard
Potential control : Ewe
Ewe ctrl range : min = -1.00 V, max = 1.00 V
Ewe,I filtering : <None>
Safety Limits :
	Do not start on E overload
Channel : Floating
Acquisition started on : 02/22/2024 14:35:39.248
Loaded Setting File :  C:\Data\mathias\RDE-RPM-variation\240219-CV-EIS-Fe2Fe3_5mM-HCl1M-RPMtest-Ag_AgCl_BLF8-GC-RDE.mps
Saved on :
	File : 240222-CV-EIS-Fe2Fe3_5mM-HCl1M-0RPM-Ag_AgCl_BLF8-GC-RDE-DefaultSettings_03_PEIS_C15.mpr
	Directory : C:\Data\mathias\RDE-RPM-variation\
	Host : 192.168.0.1
Device : VMP-300 (SN 0826)
Address : USB
EC-Lab for windows v11.52 (software)
Internet server v11.52 (firmware)
Command interpretor v11.52 (firmware)
Electrode material :
Initial state :
Electrolyte :
Comments :
Cable : special
Electrode surface area : 0.001 cm²
Characteristic mass : 0.001 g
Equivalent Weight : 0.000 g/eq.
Density : 0.000 g/cm3
Volume (V) : 0.001 cm³
Record EIS quality indicators
Cycle Definition : Charge/Discharge alternance
Mode                Single sine
E (V)               0.0000
vs.                 Ref
tE (h:m:s)          0:01:0.0000
record              0
dI                  0.000
unit dI             mA
dt (s)              0.000
fi                  400.000
unit fi             kHz
ff                  100.000
unit ff             mHz
Nd                  10
Points              per decade
spacing             Logarithmic
Va (mV)             7.0
pw                  0.10
Na                  3
corr                0
E range min (V)     -1.000
E range max (V)     1.000
I Range             Auto
Bandwidth           8
nc cycles           2
goto Ns'            0
nr cycles           0
inc. cycle          1

freq/Hz	Re(Z)/Ohm	-Im(Z)/Ohm	|Z|/Ohm	Phase(Z)/deg	time/s	<Ewe>/V	<I>/mA	Cs/µF	Cp/µF	cycle number	I Range	|Ewe|/V	|I|/A	Ns	(Q-Qo)/mA.h	THD Ewe/%	NSD Ewe/%	NSR Ewe/%	|Ewe h2|/V	|Ewe h3|/V	|Ewe h4|/V	|Ewe h5|/V	|Ewe h6|/V	|Ewe h7|/V	THD I/%	NSD I/%	NSR I/%	|I h2|/A	|I h3|/A	|I h4|/A	|I h5|/A	|I h6|/A	|I h7|/A	Re(Y)/Ohm-1	Im(Y)/Ohm-1	|Y|/Ohm-1	Phase(Y)/deg	Re(C)/nF	Im(C)/nF	|C|/nF	Phase(C)/deg	Re(M)	Im(M)	|M|	Phase(M)/deg	Re(Permittivity)	Im(Permittivity)	|Permittivity|	Phase(Permittivity)/deg	Re(Resistivity)/Ohm.cm	Im(Resistivity)/Ohm.cm	|Resistivity|/Ohm.cm	Phase(Resistivity)/deg	Re(Conductivity)/mS/cm	Im(Conductivity)/mS/cm	|Conductivity|/mS/cm	Phase(Conductivity)/deg	Tan(Delta)	Loss Angle(Delta)/deg	dq/mA.h
399996	3.64604	1.55605	3.9642	-23.1117	422.679	-0.000168742	-0.0320311	0.255706	0.0393981	1	38	0.00645374	0.001628	0	-0.000590532	-1	-1	-1	0	0	0	0	0	0	-1	-1	-1	0	0	0	0	0	0	0.232012	0.0990174	0.252258	23.1117	39.3981	92.3154	100.371	-66.8883	0.0000000E+000	0.0000000E+000	0.0000000E+000	66.8883	0.0000000E+000	0.0000000E+000	0.0000000E+000	-66.8883	0.0000000E+000	0.0000000E+000	0.0000000E+000	-23.1117	0.0000000E+000	0.0000000E+000	0.0000000E+000	23.1117	2.34314	66.8883	-0.000590532
20032.3	3.77022	2.20414	4.36724	-30.3113	437.591	-0.000167325	-0.0299216	3.60455	0.91815	1	38	0.00728273	0.00166758	0	-0.00072481	1.0582	0.568284	18.3973	3.25975e-05	3.19811e-05	3.37394e-05	2.58111e-05	1.5347e-05	2.98386e-05	0.113055	0.0616089	1.72969	7.0525e-07	1.1026e-06	7.91286e-07	6.10875e-07	5.11447e-07	5.38144e-07	0.197675	0.115564	0.228978	30.3113	918.151	1570.52	1819.21	-59.6887	0.0000000E+000	0.0000000E+000	0.0000000E+000	59.6887	0.0000000E+000	0.0000000E+000	0.0000000E+000	-59.6887	0.0000000E+000	0.0000000E+000	0.0000000E+000	-30.3113	0.0000000E+000	0.0000000E+000	0.0000000E+000	30.3113	1.71052	59.6887	-1.03278e-05
1002.75	9.70321	32.8957	34.2969	-73.5656	452.788	-0.000295051	-0.0252928	4.8249	4.4387	1	39	0.00710547	0.000207175	0	-0.000845719	1.15763	0.647939	18.3225	4.3753e-05	2.52239e-05	4.01579e-05	3.43608e-05	2.32572e-05	1.65043e-05	0.70958	0.242834	6.42455	1.03839e-06	7.44036e-07	3.71406e-07	4.8674e-07	2.09063e-07	2.33481e-07	0.00824909	0.0279659	0.0291572	73.5656	4438.7	1309.28	4627.78	-16.4344	0.0000000E+000	0.0000000E+000	0.0000000E+000	16.4344	0.0000000E+000	0.0000000E+000	0.0000000E+000	-16.4344	0.0000000E+000	0.0000000E+000	0.0000000E+000	-73.5656	0.0000000E+000	0.0000000E+000	0.0000000E+000	73.5656	0.294969	16.4344	-9.72745e-06
50.2089	116.479	395.654	412.443	-73.5958	467.545	-0.000302358	-0.024715	8.01169	7.3727	1	40	0.00692823	1.6798e-05	0	-0.000947594	1.30186	0.438841	28.8228	2.26139e-05	2.93707e-05	4.10313e-05	4.35261e-05	3.76231e-05	2.31416e-05	0.897078	0.259684	15.599	5.83173e-08	5.56965e-08	5.79921e-08	9.08654e-08	2.88436e-08	4.10082e-08	0.000684729	0.00232588	0.00242458	73.5958	7372.7	2170.49	7685.56	-16.4042	0.0000000E+000	0.0000000E+000	0.0000000E+000	16.4042	0.0000000E+000	0.0000000E+000	0.0000000E+000	-16.4042	0.0000000E+000	0.0000000E+000	0.0000000E+000	-73.5958	0.0000000E+000	0.0000000E+000	0.0000000E+000	73.5958	0.294396	16.4042	-7.28696e-06
2.51368	1712.88	4414.55	4735.21	-68.7933	486.58	-0.000246375	-0.0246343	14.3425	12.4657	1	41	0.00689642	1.45641e-06	0	-0.00107689	0.726345	0.392812	14.1918	3.03316e-05	1.3583e-05	1.99092e-05	1.19494e-05	1.5919e-05	2.13745e-05	0.744952	0.609997	13.5084	4.86471e-09	4.12467e-09	3.88162e-09	4.49556e-09	2.29311e-09	4.59319e-09	7.63922e-05	0.000196883	0.000211184	68.7933	12465.7	4836.81	13371.2	-21.2067	0.0000000E+000	0.0000000E+000	0.0000000E+000	21.2067	0.0000000E+000	0.0000000E+000	0.0000000E+000	-21.2067	0.0000000E+000	0.0000000E+000	0.0000000E+000	-68.7933	0.0000000E+000	0.0000000E+000	0.0000000E+000	68.7933	0.388008	21.2067	-1.90855e-05
0.125939	22500.1	36306.4	42713.1	-58.2123	714.816	-0.000263551	-0.0244315	34.8079	25.1491	1	41	0.0068935	1.61391e-07	0	-0.00263056	0.188932	0.102416	2.99944	3.59406e-06	9.18705e-06	3.47802e-06	4.84453e-06	2.85712e-06	2.25738e-06	9.76742	30.4395	31.5864	1.23321e-08	6.09931e-09	3.58935e-09	4.10924e-09	3.57219e-09	3.25974e-09	1.23328e-05	1.99004e-05	2.3412e-05	58.2123	25149.1	15585.6	29586.9	-31.7877	0.0000000E+000	0.0000000E+000	0.0000000E+000	31.7877	0.0000000E+000	0.0000000E+000	0.0000000E+000	-31.7877	0.0000000E+000	0.0000000E+000	0.0000000E+000	-58.2123	0.0000000E+000	0.0000000E+000	0.0000000E+000	58.2123	0.619728	31.7877	-0.000331859
31751	3.67618	1.56411	3.99509	-23.0484	791.571	-0.000160409	-0.0262349	3.20475	0.49122	2	38	0.00723729	0.00181154	0	-0.00316079	0.966303	0.635534	18.7865	1.75134e-05	3.11942e-05	2.21934e-05	2.32622e-05	2.44047e-05	2.49182e-05	0.104846	0.0503454	1.58658	7.25326e-07	1.05706e-06	5.77377e-07	8.56799e-07	2.64277e-07	5.0235e-07	0.230326	0.0979973	0.250307	23.0484	491.22	1154.53	1254.69	-66.9516	0.0000000E+000	0.0000000E+000	0.0000000E+000	66.9516	0.0000000E+000	0.0000000E+000	0.0000000E+000	-66.9516	0.0000000E+000	0.0000000E+000	0.0000000E+000	-23.0484	0.0000000E+000	0.0000000E+000	0.0000000E+000	23.0484	2.35033	66.9516	-9.87318e-06
1589.49	7.16886	22.644	23.7517	-72.4327	806.592	-0.000310299	-0.0272851	4.4219	4.01907	2	38	0.00668335	0.000281384	0	-0.0032729	0.824497	0.458969	20.2657	2.36641e-05	1.89152e-05	2.13044e-05	1.86447e-05	1.79118e-05	2.59986e-05	0.813602	0.42355	10.4115	7.89566e-07	1.57822e-06	6.22371e-07	8.95516e-07	5.74389e-07	5.97962e-07	0.0127075	0.0401387	0.0421023	72.4327	4019.07	1272.4	4215.68	-17.5673	0.0000000E+000	0.0000000E+000	0.0000000E+000	17.5673	0.0000000E+000	0.0000000E+000	0.0000000E+000	-17.5673	0.0000000E+000	0.0000000E+000	0.0000000E+000	-72.4327	0.0000000E+000	0.0000000E+000	0.0000000E+000	72.4327	0.31659	17.5673	-8.40609e-06
79.6177	82.2405	282.959	294.668	-73.7938	821.451	-0.000256018	-0.0245693	7.0646	6.51431	2	40	0.00651732	2.21175e-05	0	-0.00337445	1.98209	0.769479	30.856	2.75899e-05	4.88604e-05	4.25768e-05	4.76048e-05	3.79187e-05	7.68752e-05	0.757331	0.279069	11.8542	1.99309e-08	5.94416e-08	5.03337e-08	9.90479e-08	5.40714e-08	7.77368e-08	0.000947153	0.0032588	0.00339365	73.7938	6514.31	1893.35	6783.88	-16.2062	0.0000000E+000	0.0000000E+000	0.0000000E+000	16.2062	0.0000000E+000	0.0000000E+000	0.0000000E+000	-16.2062	0.0000000E+000	0.0000000E+000	0.0000000E+000	-73.7938	0.0000000E+000	0.0000000E+000	0.0000000E+000	73.7938	0.290645	16.2062	-7.26563e-06
3.98597	1150.23	3237.07	3435.35	-70.4383	837.527	-0.000260738	-0.024501	12.3349	10.9521	2	41	0.00642735	1.87095e-06	0	-0.00348291	1.1998	0.745881	19.3687	3.29202e-05	3.30114e-05	3.21581e-05	3.26822e-05	2.49394e-05	1.25285e-05	0.726862	0.695602	13.241	3.46304e-09	6.73433e-09	4.76031e-09	7.33486e-09	3.89207e-09	3.66241e-09	9.74636e-05	0.00027429	0.000291091	70.4383	10952.1	3891.6	11622.9	-19.5617	0.0000000E+000	0.0000000E+000	0.0000000E+000	19.5617	0.0000000E+000	0.0000000E+000	0.0000000E+000	-19.5617	0.0000000E+000	0.0000000E+000	0.0000000E+000	-70.4383	0.0000000E+000	0.0000000E+000	0.0000000E+000	70.4383	0.35533	19.5617	-1.30165e-05
0.199573	15556	25381.6	29769.3	-58.4965	983.222	-0.000248851	-0.0245442	31.4195	22.8401	2	41	0.00643499	2.16162e-07	0	-0.00447355	0.215134	0.15294	4.04177	3.07989e-06	5.61485e-06	7.3741e-06	4.52475e-06	3.17043e-06	6.59846e-06	5.8213	28.5714	31.5012	9.23876e-09	4.82267e-09	4.57189e-09	3.1343e-09	3.20669e-09	2.15236e-09	1.75533e-05	2.86405e-05	3.35916e-05	58.4965	22840.1	13998.3	26788.5	-31.5035	0.0000000E+000	0.0000000E+000	0.0000000E+000	31.5035	0.0000000E+000	0.0000000E+000	0.0000000E+000	-31.5035	0.0000000E+000	0.0000000E+000	0.0000000E+000	-58.4965	0.0000000E+000	0.0000000E+000	0.0000000E+000	58.4965	0.612885	31.5035	-0.000210658
50326.6	3.62052	1.14405	3.79698	-17.536	1145.34	-0.000147174	-0.0257452	2.76426	0.250952	3	38	0.0072624	0.00191268	0	-0.00556903	1.09681	0.378041	18.7004	4.36097e-05	3.09528e-05	2.61902e-05	1.28098e-05	1.92755e-05	4.23712e-05	0.08202	0.0601003	1.53176	4.81115e-07	6.07182e-07	7.19647e-07	3.60219e-07	7.80318e-07	5.52707e-07	0.251128	0.0793538	0.263367	17.536	250.952	794.178	832.884	-72.464	0.0000000E+000	0.0000000E+000	0.0000000E+000	72.464	0.0000000E+000	0.0000000E+000	0.0000000E+000	-72.464	0.0000000E+000	0.0000000E+000	0.0000000E+000	-17.536	0.0000000E+000	0.0000000E+000	0.0000000E+000	17.536	3.16466	72.464	-7.21697e-06
2519.19	5.74148	15.0314	16.0906	-69.0949	1160.44	-0.000299637	-0.0270766	4.20299	3.66786	3	38	0.00677496	0.00042105	0	-0.00567826	1.06304	0.505796	19.8613	3.06693e-05	3.62013e-05	2.67233e-05	2.37078e-05	1.01005e-05	3.02059e-05	0.506199	0.301403	6.95937	6.23188e-07	1.41902e-06	7.42151e-07	8.2306e-07	5.72153e-07	4.63124e-07	0.0221757	0.0580569	0.0621479	69.0949	3667.86	1400.99	3926.32	-20.9051	0.0000000E+000	0.0000000E+000	0.0000000E+000	20.9051	0.0000000E+000	0.0000000E+000	0.0000000E+000	-20.9051	0.0000000E+000	0.0000000E+000	0.0000000E+000	-69.0949	0.0000000E+000	0.0000000E+000	0.0000000E+000	69.0949	0.381965	20.9051	-7.70049e-06
126.171	54.457	196.243	203.659	-74.4908	1175.07	-0.000236557	-0.024934	6.42784	5.96826	3	39	0.00631129	3.09895e-05	0	-0.00577953	0.847142	0.632655	21.1066	3.00947e-05	2.2145e-05	1.9864e-05	1.50052e-05	1.86299e-05	1.38469e-05	2.18485	1.0547	42.9393	3.96811e-07	2.7999e-07	2.68297e-07	2.06482e-07	1.43953e-07	2.08505e-07	0.00131294	0.00473138	0.00491017	74.4908	5968.26	1656.18	6193.79	-15.5092	0.0000000E+000	0.0000000E+000	0.0000000E+000	15.5092	0.0000000E+000	0.0000000E+000	0.0000000E+000	-15.5092	0.0000000E+000	0.0000000E+000	0.0000000E+000	-74.4908	0.0000000E+000	0.0000000E+000	0.0000000E+000	74.4908	0.277497	15.5092	-7.57392e-06
6.31569	755.739	2281.98	2403.86	-71.6763	1190.27	-0.000276019	-0.0245664	11.043	9.95156	3	41	0.00689956	2.8702e-06	0	-0.00588257	1.36536	0.71034	25.9106	2.06487e-05	3.3469e-05	3.64311e-05	2.39169e-05	4.17241e-05	5.14047e-05	0.718943	0.374889	12.1606	5.15907e-09	7.43725e-09	7.1459e-09	1.10621e-08	8.60547e-09	8.94359e-09	0.000130783	0.000394904	0.000415997	71.6763	9951.57	3295.73	10483.1	-18.3237	0.0000000E+000	0.0000000E+000	0.0000000E+000	18.3237	0.0000000E+000	0.0000000E+000	0.0000000E+000	-18.3237	0.0000000E+000	0.0000000E+000	0.0000000E+000	-71.6763	0.0000000E+000	0.0000000E+000	0.0000000E+000	71.6763	0.331177	18.3237	-9.31212e-06
0.316193	10077.9	20333.6	22694.1	-63.6357	1283.98	-0.000227182	-0.0245702	24.7544	19.8728	3	41	0.00689356	3.0376e-07	0	-0.00652043	0.280113	0.200771	4.74175	8.60616e-06	8.76692e-06	4.44638e-06	1.05709e-05	4.68482e-06	5.34085e-06	2.37188	7.58358	31.2925	3.34771e-09	3.39675e-09	2.61748e-09	2.79925e-09	1.5051e-09	1.81173e-09	1.9568e-05	3.94812e-05	4.40644e-05	63.6357	19872.8	9849.5	22179.7	-26.3643	0.0000000E+000	0.0000000E+000	0.0000000E+000	26.3643	0.0000000E+000	0.0000000E+000	0.0000000E+000	-26.3643	0.0000000E+000	0.0000000E+000	0.0000000E+000	-63.6357	0.0000000E+000	0.0000000E+000	0.0000000E+000	63.6357	0.495628	26.3643	-0.00013392
0.0999518	26675.5	37889.2	46337.6	-54.8529	1488.56	-0.000239624	-0.0247674	42.0256	28.0981	3	41	0.00689469	1.48792e-07	0	-0.00791816	0.163624	0.119454	2.81172	2.4966e-06	5.3161e-06	2.77878e-06	5.33393e-06	5.37891e-06	3.13969e-06	21.8657	68.173	37.1756	2.29929e-08	1.45059e-08	1.04051e-08	8.73344e-09	6.70818e-09	6.19592e-09	1.24236e-05	1.76461e-05	2.15807e-05	54.8529	28098.1	19782.2	34363.4	-35.1471	0.0000000E+000	0.0000000E+000	0.0000000E+000	35.1471	0.0000000E+000	0.0000000E+000	0.0000000E+000	-35.1471	0.0000000E+000	0.0000000E+000	0.0000000E+000	-54.8529	0.0000000E+000	0.0000000E+000	0.0000000E+000	54.8529	0.704041	35.1471	-0.000421194