File: Python/Data/RDE/240223-OCV-EIS-Fe2Fe3_5mM-HCl1M-2000RPM-Ag_AgCl_BLF8-GC-RDE-AllPreviousVariations_08_PEIS_C15.mpt
EC-Lab ASCII FILE
Nb header lines : 67

Potentio Electrochemical Impedance Spectroscopy

Run on channel : 15 (SN 19485)
User :
Electrode connection : standard
Potential control : Ewe
Ewe ctrl range : min = -1.00 V, max = 1.00 V
Ewe,I filtering : 50 kHz
Safety Limits :
	Do not start on E overload
Channel : Floating
Acquisition started on : 02/23/2024 12:36:41.987
Loaded Setting File :  C:\Data\mathias\RDE-RPM-variation\240222-CV-EIS-Fe2Fe3_5mM-HCl1M-0RPM-Ag_AgCl_BLF8-GC-RDE-DefaultSettings.mps
Saved on :
	File : 240223-OCV-EIS-Fe2Fe3_5mM-HCl1M-2000RPM-Ag_AgCl_BLF8-GC-RDE-AllPreviousVariations_08_PEIS_C15.mpr
	Directory : C:\Data\mathias\RDE-RPM-variation\
	Host : 192.168.0.1
Device : VMP-300 (SN 0826)
Address : USB
EC-Lab for windows v11.52 (software)
Internet server v11.52 (firmware)
Command interpretor v11.52 (firmware)
Electrode material :
Initial state :
Electrolyte :
Comments :
Cable : special
Reference electrode : SCE Saturated Calomel Electrode (0.241 V)
Electrode surface area : 0.001 cm²
Characteristic mass : 0.001 g
Equivalent Weight : 0.000 g/eq.
Density : 0.000 g/cm3
Volume (V) : 0.001 cm³
Record EIS quality indicators
Cycle Definition : Charge/Discharge alternance
Mode                Single sine
E (V)               0.0000
vs.                 Ref
tE (h:m:s)          0:05:0.0000
record              0
dI                  0.000
unit dI             mA
dt (s)              0.000
fi                  1.000
unit fi             MHz
ff                  100.000
unit ff             mHz
Nd                  10
Points              per decade
spacing             Logarithmic
Va (mV)             14.1
pw                  0.10
Na                  5
corr                0
E range min (V)     -1.000
E range max (V)     1.000
I Range             Auto
Bandwidth           8
nc cycles           2
goto Ns'            0
nr cycles           0
inc. cycle          1

freq/Hz	Re(Z)/Ohm	-Im(Z)/Ohm	|Z|/Ohm	Phase(Z)/deg	time/s	<Ewe>/V	<I>/mA	Cs/µF	Cp/µF	cycle number	I Range	|Ewe|/V	|I|/A	Ns	(Q-Qo)/mA.h	THD Ewe/%	NSD Ewe/%	NSR Ewe/%	|Ewe h2|/V	|Ewe h3|/V	|Ewe h4|/V	|Ewe h5|/V	|Ewe h6|/V	|Ewe h7|/V	THD I/%	NSD I/%	NSR I/%	|I h2|/A	|I h3|/A	|I h4|/A	|I h5|/A	|I h6|/A	|I h7|/A	Re(Y)/Ohm-1	Im(Y)/Ohm-1	|Y|/Ohm-1	Phase(Y)/deg	Re(C)/nF	Im(C)/nF	|C|/nF	Phase(C)/deg	Re(M)	Im(M)	|M|	Phase(M)/deg	Re(Permittivity)	Im(Permittivity)	|Permittivity|	Phase(Permittivity)/deg	Re(Resistivity)/Ohm.cm	Im(Resistivity)/Ohm.cm	|Resistivity|/Ohm.cm	Phase(Resistivity)/deg	Re(Conductivity)/mS/cm	Im(Conductivity)/mS/cm	|Conductivity|/mS/cm	Phase(Conductivity)/deg	Tan(Delta)	Loss Angle(Delta)/deg	dq/mA.h
1.00002e+06	3.54443	4.09868	5.41868	-49.1476	3085.37	-0.00015875	-0.511103	0.0388301	0.0222161	1	38	0.0111433	0.00205645	0	-0.0427995	-1	-1	-1	0	0	0	0	0	0	-1	-1	-1	0	0	0	0	0	0	0.120714	0.139591	0.184547	49.1476	22.2161	19.2119	29.371	-40.8524	0.0000000E+000	0.0000000E+000	0.0000000E+000	40.8524	0.0000000E+000	0.0000000E+000	0.0000000E+000	-40.8524	0.0000000E+000	0.0000000E+000	0.0000000E+000	-49.1476	0.0000000E+000	0.0000000E+000	0.0000000E+000	49.1476	0.864774	40.8524	-0.0427995
39814.1	3.57336	1.56762	3.90209	-23.6868	3110.62	-0.000179814	-0.511818	2.55002	0.411555	1	38	0.0146144	0.00374527	0	-0.046393	0.451994	0.235065	9.15951	3.81532e-05	1.48534e-05	2.55434e-05	2.87256e-05	1.83044e-05	2.29325e-05	0.0534939	0.0530873	0.779999	7.63478e-07	9.61742e-07	5.36229e-07	9.39036e-07	5.1561e-07	6.27678e-07	0.234683	0.102954	0.256273	23.6868	411.555	938.135	1024.44	-66.3132	0.0000000E+000	0.0000000E+000	0.0000000E+000	66.3132	0.0000000E+000	0.0000000E+000	0.0000000E+000	-66.3132	0.0000000E+000	0.0000000E+000	0.0000000E+000	-23.6868	0.0000000E+000	0.0000000E+000	0.0000000E+000	23.6868	2.27949	66.3132	-0.000257144
1584.49	10.6595	22.8159	25.1831	-64.9581	3136.28	-0.000268768	-0.510405	4.40244	3.61367	1	38	0.0140237	0.000556869	0	-0.0500017	0.463647	0.292723	9.46198	2.13335e-05	2.37913e-05	2.35456e-05	2.5081e-05	3.10905e-05	1.92658e-05	0.937643	0.152672	5.27546	4.45254e-06	1.56251e-06	5.59895e-07	1.7749e-06	6.22372e-07	5.04276e-07	0.0168081	0.0359764	0.0397092	64.9581	3613.67	1688.3	3988.6	-25.0419	0.0000000E+000	0.0000000E+000	0.0000000E+000	25.0419	0.0000000E+000	0.0000000E+000	0.0000000E+000	-25.0419	0.0000000E+000	0.0000000E+000	0.0000000E+000	-64.9581	0.0000000E+000	0.0000000E+000	0.0000000E+000	64.9581	0.467198	25.0419	-0.000289853
63.0823	135.78	188.754	232.518	-54.2708	3162.03	-0.0002601	-0.50804	13.3664	8.80843	1	39	0.0136365	5.86474e-05	0	-0.0536071	0.572073	0.238025	9.3841	3.0393e-05	2.27721e-05	2.42365e-05	3.77348e-05	2.63563e-05	3.29746e-05	1.97486	0.537764	22.1962	8.72218e-07	2.20873e-07	2.08266e-07	3.34431e-07	3.29777e-07	3.8127e-07	0.00251145	0.00349129	0.00430075	54.2708	8808.43	6336.31	10850.7	-35.7292	0.0000000E+000	0.0000000E+000	0.0000000E+000	35.7292	0.0000000E+000	0.0000000E+000	0.0000000E+000	-35.7292	0.0000000E+000	0.0000000E+000	0.0000000E+000	-54.2708	0.0000000E+000	0.0000000E+000	0.0000000E+000	54.2708	0.719346	35.7292	-0.000250921
2.51085	1114.89	942.255	1459.74	-40.2029	3194.83	-0.00026799	-0.507648	67.2716	28.0298	1	39	0.0136323	9.33888e-06	0	-0.0582037	0.20042	0.118386	3.51683	1.13849e-05	1.18253e-05	1.19025e-05	1.36476e-05	6.57769e-06	8.55226e-06	5.44359	10.3628	54.0245	3.23759e-07	2.44647e-07	1.44811e-07	1.34014e-07	1.30002e-07	9.78316e-08	0.00052322	0.000442201	0.000685055	40.2029	28029.8	33165.3	43423.6	-49.7971	0.0000000E+000	0.0000000E+000	0.0000000E+000	49.7971	0.0000000E+000	0.0000000E+000	0.0000000E+000	-49.7971	0.0000000E+000	0.0000000E+000	0.0000000E+000	-40.2029	0.0000000E+000	0.0000000E+000	0.0000000E+000	40.2029	1.18322	49.7971	-0.000651686
0.0999518	2393.48	177.168	2400.02	-4.2334	3674.49	-0.000238036	-0.505328	8987.59	48.9762	1	39	0.0136275	5.67808e-06	0	-0.125606	0.117416	0.0321948	0.752229	2.02286e-06	1.06983e-05	2.44958e-06	1.08936e-05	1.22074e-06	1.89778e-06	8.90681	4.68922	28.2013	2.48778e-07	1.6146e-07	1.74746e-07	1.82703e-07	1.87627e-07	1.84551e-07	0.000415526	3.07578e-05	0.000416663	4.2334	48976.2	661649	663459	-85.7666	0.0000000E+000	0.0000000E+000	0.0000000E+000	85.7666	0.0000000E+000	0.0000000E+000	0.0000000E+000	-85.7666	0.0000000E+000	0.0000000E+000	0.0000000E+000	-4.2334	0.0000000E+000	0.0000000E+000	0.0000000E+000	4.2334	13.5096	85.7666	-0.014265
50122.5	3.52671	1.342	3.77341	-20.833	3700.38	-0.000140501	-0.508701	2.36612	0.299276	2	38	0.0145899	0.0038665	0	-0.129226	0.474312	0.262822	9.08048	2.45478e-05	2.3157e-05	1.70331e-05	2.82208e-05	3.26577e-05	3.22494e-05	0.0702116	0.025279	0.751559	1.26497e-06	1.5288e-06	8.88163e-07	7.57171e-07	8.18716e-07	7.82192e-07	0.247686	0.0942505	0.265012	20.833	299.276	786.483	841.499	-69.167	0.0000000E+000	0.0000000E+000	0.0000000E+000	69.167	0.0000000E+000	0.0000000E+000	0.0000000E+000	-69.167	0.0000000E+000	0.0000000E+000	0.0000000E+000	-20.833	0.0000000E+000	0.0000000E+000	0.0000000E+000	20.833	2.62795	69.167	-0.000254869
1995.64	9.10495	19.0601	21.1231	-64.4663	3725.8	-0.000292255	-0.50699	4.18421	3.4068	2	38	0.0127901	0.000605502	0	-0.132793	0.557512	0.334914	10.4863	3.20775e-05	3.06383e-05	3.09205e-05	2.29214e-05	2.27816e-05	2.44251e-05	0.869904	0.26716	4.83503	4.66786e-06	1.46522e-06	5.96304e-07	1.29132e-06	6.88477e-07	6.77755e-07	0.0204061	0.0427177	0.0473415	64.4663	3406.8	1627.42	3775.55	-25.5337	0.0000000E+000	0.0000000E+000	0.0000000E+000	25.5337	0.0000000E+000	0.0000000E+000	0.0000000E+000	-25.5337	0.0000000E+000	0.0000000E+000	0.0000000E+000	-64.4663	0.0000000E+000	0.0000000E+000	0.0000000E+000	64.4663	0.477697	25.5337	-0.000256267
79.4157	118.32	162.172	200.747	-53.8856	3751.81	-0.000264014	-0.504219	12.3577	8.06473	2	39	0.0136493	6.79926e-05	0	-0.136417	0.480195	0.227335	9.4345	2.7902e-05	2.83613e-05	2.11702e-05	2.21143e-05	2.39712e-05	2.09479e-05	1.77272	0.546461	19.732	1.00442e-06	2.81823e-07	2.55123e-07	3.02698e-07	2.54785e-07	2.49543e-07	0.00293602	0.00402417	0.00498138	53.8856	8064.73	5884	9983.06	-36.1144	0.0000000E+000	0.0000000E+000	0.0000000E+000	36.1144	0.0000000E+000	0.0000000E+000	0.0000000E+000	-36.1144	0.0000000E+000	0.0000000E+000	0.0000000E+000	-53.8856	0.0000000E+000	0.0000000E+000	0.0000000E+000	53.8856	0.729597	36.1144	-0.000246973
3.16296	895.099	832.816	1222.61	-42.9356	3781.76	-0.000257702	-0.505174	60.4196	28.0348	2	39	0.0136286	1.11471e-05	0	-0.140593	0.267992	0.123246	4.24889	1.27775e-05	1.64133e-05	1.33327e-05	1.48406e-05	1.17238e-05	1.17197e-05	5.50002	5.59119	54.1525	4.67199e-07	1.78134e-07	1.94673e-07	1.46159e-07	1.42399e-07	1.12956e-07	0.000598815	0.000557148	0.00081792	42.9356	28034.8	30131.4	41156.4	-47.0644	0.0000000E+000	0.0000000E+000	0.0000000E+000	47.0644	0.0000000E+000	0.0000000E+000	0.0000000E+000	-47.0644	0.0000000E+000	0.0000000E+000	0.0000000E+000	-42.9356	0.0000000E+000	0.0000000E+000	0.0000000E+000	42.9356	1.07479	47.0644	-0.000533913
0.125939	2266.59	160.748	2272.28	-4.05666	4164.39	-0.000261389	-0.503812	7861.7	39.3444	2	39	0.0136283	5.99765e-06	0	-0.194148	0.109438	0.0468386	0.786514	2.79273e-06	9.33996e-06	2.1431e-06	9.87251e-06	2.79748e-06	3.0408e-06	9.01584	7.4879	28.9783	2.42393e-07	2.1571e-07	2.15945e-07	1.44945e-07	9.65134e-08	2.17809e-07	0.000438984	3.1133e-05	0.000440087	4.05666	39344.3	554766	556160	-85.9433	0.0000000E+000	0.0000000E+000	0.0000000E+000	85.9433	0.0000000E+000	0.0000000E+000	0.0000000E+000	-85.9433	0.0000000E+000	0.0000000E+000	0.0000000E+000	-4.05666	0.0000000E+000	0.0000000E+000	0.0000000E+000	4.05666	14.1003	85.9433	-0.0113055
63093.8	3.49267	1.17452	3.68486	-18.5869	4290.14	-0.000166467	-0.507027	2.1477	0.218198	3	38	0.0145866	0.00395852	0	-0.211721	0.502122	0.313158	9.15003	2.60825e-05	2.88666e-05	3.474e-05	1.59483e-05	2.80639e-05	2.77764e-05	0.0691245	0.0394191	0.733134	1.79986e-06	1.28575e-06	9.97145e-07	5.58826e-07	7.89572e-07	4.44985e-07	0.257226	0.0865003	0.27138	18.5869	218.198	648.855	684.56	-71.4131	0.0000000E+000	0.0000000E+000	0.0000000E+000	71.4131	0.0000000E+000	0.0000000E+000	0.0000000E+000	-71.4131	0.0000000E+000	0.0000000E+000	0.0000000E+000	-18.5869	0.0000000E+000	0.0000000E+000	0.0000000E+000	18.5869	2.9737	71.4131	-0.000250882
2512.41	7.83065	15.7008	17.5452	-63.4926	4315.54	-0.000265412	-0.504171	4.03467	3.23098	3	38	0.0131985	0.000752255	0	-0.21525	0.59423	0.228133	10.1405	3.042e-05	2.18746e-05	2.86163e-05	2.96889e-05	2.67114e-05	3.67496e-05	0.897189	0.146972	3.8875	5.87037e-06	2.31218e-06	5.67617e-07	1.80521e-06	9.39252e-07	5.61231e-07	0.0254379	0.051004	0.0569956	63.4926	3230.98	1611.43	3610.53	-26.5074	0.0000000E+000	0.0000000E+000	0.0000000E+000	26.5074	0.0000000E+000	0.0000000E+000	0.0000000E+000	-26.5074	0.0000000E+000	0.0000000E+000	0.0000000E+000	-63.4926	0.0000000E+000	0.0000000E+000	0.0000000E+000	63.4926	0.498742	26.5074	-0.000255787
99.9682	100.21	140.287	172.402	-54.461	4341.61	-0.000235699	-0.503385	11.3486	7.51433	3	39	0.0136594	7.92299e-05	0	-0.218872	0.432049	0.250844	9.43292	3.1754e-05	1.47301e-05	1.93972e-05	1.86014e-05	2.15728e-05	2.08697e-05	1.36538	0.503278	16.8523	8.92751e-07	2.31686e-07	2.45107e-07	2.7295e-07	1.77647e-07	3.10576e-07	0.00337152	0.00471989	0.00580039	54.461	7514.33	5367.65	9234.54	-35.539	0.0000000E+000	0.0000000E+000	0.0000000E+000	35.539	0.0000000E+000	0.0000000E+000	0.0000000E+000	-35.539	0.0000000E+000	0.0000000E+000	0.0000000E+000	-54.461	0.0000000E+000	0.0000000E+000	0.0000000E+000	54.461	0.714322	35.539	-0.000245395
3.9819	750.236	705.477	1029.83	-43.2389	4369.52	-0.000259354	-0.502556	56.6561	26.5877	3	39	0.0136325	1.32377e-05	0	-0.222748	0.290823	0.140129	4.56341	9.47104e-06	1.55047e-05	1.67576e-05	2.05888e-05	1.77987e-05	8.52471e-06	4.91943	9.87047	49.4708	5.29146e-07	1.79862e-07	1.81659e-07	7.92921e-08	1.70793e-07	8.23664e-08	0.000707401	0.000665198	0.000971033	43.2389	26587.7	28274.5	38811.8	-46.7611	0.0000000E+000	0.0000000E+000	0.0000000E+000	46.7611	0.0000000E+000	0.0000000E+000	0.0000000E+000	-46.7611	0.0000000E+000	0.0000000E+000	0.0000000E+000	-43.2389	0.0000000E+000	0.0000000E+000	0.0000000E+000	43.2389	1.06344	46.7611	-0.000441841
0.158419	2153.89	188.171	2162.09	-4.99288	4675.16	-0.000266923	-0.502488	5339.01	40.4406	3	39	0.0136269	6.30264e-06	0	-0.265392	0.119546	0.0346397	0.839901	3.0944e-06	1.09793e-05	2.2783e-06	1.01565e-05	2.4619e-06	2.81232e-06	9.92681	5.6731	27.431	3.15427e-07	2.94492e-07	2.22267e-07	1.22345e-07	1.99577e-07	2.28207e-07	0.00046076	4.02536e-05	0.000462515	4.99288	40440.6	462901	464664	-85.0071	0.0000000E+000	0.0000000E+000	0.0000000E+000	85.0071	0.0000000E+000	0.0000000E+000	0.0000000E+000	-85.0071	0.0000000E+000	0.0000000E+000	0.0000000E+000	-4.99288	0.0000000E+000	0.0000000E+000	0.0000000E+000	4.99288	11.4464	85.0071	-0.00897223
0.0999518	2159.49	120.833	2162.86	-3.20263	4857.63	-0.000238386	-0.502102	13177.8	41.1299	3	39	0.0136272	6.30052e-06	0	-0.290834	0.120734	0.0590389	0.734094	1.97281e-06	1.05794e-05	3.66169e-06	1.12781e-05	2.27369e-06	1.39418e-06	7.55636	4.47844	26.6903	2.14358e-07	1.98151e-07	2.35922e-07	9.54058e-08	1.59038e-07	1.36018e-07	0.000461628	2.58302e-05	0.00046235	3.20263	41129.9	735058	736207	-86.7974	0.0000000E+000	0.0000000E+000	0.0000000E+000	86.7974	0.0000000E+000	0.0000000E+000	0.0000000E+000	-86.7974	0.0000000E+000	0.0000000E+000	0.0000000E+000	-3.20263	0.0000000E+000	0.0000000E+000	0.0000000E+000	3.20263	17.8716	86.7974	-0.0141732