File: Python/Data/RDE/240223-OCV-EIS-Fe2Fe3_5mM-HCl1M-0RPM-Ag_AgCl_BLF8-GC-RDE-1minRestVSEoc-3ppf-14p1mVAmplitude_03_OCV_C15.mpt
EC-Lab ASCII FILE
Nb header lines : 47

Open Circuit Voltage

Run on channel : 15 (SN 19485)
User :
Electrode connection : standard
Potential control : Ewe
Ewe ctrl range : min = -1.00 V, max = 1.00 V
Ewe,I filtering : 50 kHz
Safety Limits :
	Do not start on E overload
Channel : Floating
Acquisition started on : 02/23/2024 16:29:27.631
Loaded Setting File :  NONE
Saved on :
	File : 240223-OCV-EIS-Fe2Fe3_5mM-HCl1M-0RPM-Ag_AgCl_BLF8-GC-RDE-1minRestVSEoc-3ppf-14p1mVAmplitude_03_OCV_C15.mpr
	Directory : C:\Data\mathias\RDE-RPM-variation\
	Host : 192.168.0.1
Device : VMP-300 (SN 0826)
Address : USB
EC-Lab for windows v11.52 (software)
Internet server v11.52 (firmware)
Command interpretor v11.52 (firmware)
Electrode material :
Initial state :
Electrolyte :
Comments :
Cable : special
Reference electrode : SCE Saturated Calomel Electrode (0.241 V)
Electrode surface area : 0.001 cm²
Characteristic mass : 0.001 g
Equivalent Weight : 0.000 g/eq.
Density : 0.000 g/cm3
Volume (V) : 0.001 cm³
Record EIS quality indicators
Cycle Definition : Charge/Discharge alternance
tR (h:m:s)          0:01:0.0000
dER/dt (mV/h)       1.0
record              <Ewe>
dER (mV)            0.00
dtR (s)             0.5000
E range min (V)     -1.000
E range max (V)     1.000

mode	error	time/s	<Ewe/V>
3	0	482.618	0.45973
3	0	483.118	0.459315
3	0	483.618	0.459275
3	0	484.118	0.459277
3	0	484.618	0.459286
3	0	485.118	0.459297
3	0	485.618	0.459306
3	0	486.118	0.459317
3	0	486.618	0.459322
3	0	487.118	0.459331
3	0	487.618	0.459339
3	0	488.118	0.459349
3	0	488.618	0.459353
3	0	489.118	0.45936
3	0	489.618	0.459365
3	0	490.118	0.45937
3	0	490.618	0.459373
3	0	491.118	0.459378
3	0	491.618	0.459386
3	0	492.118	0.459391
3	0	492.618	0.459392
3	0	493.118	0.459397
3	0	493.618	0.4594
3	0	494.118	0.459405
3	0	494.618	0.459408
3	0	495.118	0.459411
3	0	495.618	0.459414
3	0	496.118	0.459417
3	0	496.618	0.459418
3	0	497.118	0.459418
3	0	497.618	0.459422
3	0	498.118	0.459421
3	0	498.618	0.459421
3	0	499.118	0.459427
3	0	499.618	0.459428
3	0	500.118	0.459435
3	0	500.618	0.459437
3	0	501.118	0.459439
3	0	501.618	0.45944
3	0	502.118	0.459442
3	0	502.618	0.459445
3	0	503.118	0.459445
3	0	503.618	0.459447
3	0	504.118	0.459447
3	0	504.618	0.459446
3	0	505.118	0.459446
3	0	505.618	0.459449
3	0	506.118	0.459447
3	0	506.618	0.459446
3	0	507.118	0.459447
3	0	507.618	0.45945
3	0	508.118	0.459453
3	0	508.618	0.459456
3	0	509.118	0.459459
3	0	509.618	0.459459
3	0	510.118	0.459458
3	0	510.618	0.459459
3	0	511.118	0.459461
3	0	511.618	0.459462
3	0	512.118	0.459466
3	0	512.618	0.459468
3	0	513.118	0.45947
3	0	513.618	0.45947
3	0	514.118	0.459471
3	0	514.618	0.459473
3	0	515.118	0.459475
3	0	515.618	0.459479
3	0	516.118	0.459479
3	0	516.618	0.45948
3	0	517.118	0.459479
3	0	517.618	0.45948
3	0	518.118	0.459481
3	0	518.618	0.459485
3	0	519.118	0.459484
3	0	519.618	0.459485
3	0	520.118	0.459487
3	0	520.618	0.459488
3	0	521.118	0.459488
3	0	521.618	0.459492
3	0	522.118	0.459494
3	0	522.618	0.459494
3	0	523.118	0.459495
3	0	523.618	0.459497
3	0	524.118	0.4595
3	0	524.618	0.4595
3	0	525.118	0.459501
3	0	525.618	0.459501
3	0	526.118	0.459505
3	0	526.618	0.459503
3	0	527.118	0.459506
3	0	527.618	0.459505
3	0	528.118	0.459504
3	0	528.618	0.459504
3	0	529.118	0.459505
3	0	529.618	0.459505
3	0	530.118	0.459507
3	0	530.618	0.459506
3	0	531.118	0.459508
3	0	531.618	0.459508
3	0	532.118	0.45951
3	0	532.618	0.45951
3	0	533.118	0.459511
3	0	533.618	0.459516
3	0	534.118	0.459519
3	0	534.618	0.459518
3	0	535.118	0.459522
3	0	535.618	0.459521
3	0	536.118	0.45952
3	0	536.618	0.459518
3	0	537.118	0.459518
3	0	537.618	0.459517
3	0	538.118	0.459519
3	0	538.618	0.459519
3	0	539.118	0.459518
3	0	539.618	0.459519
3	0	540.118	0.459522
3	0	540.618	0.459523
3	0	541.118	0.459523
3	0	541.618	0.459524
3	0	542.118	0.459525
3	0	542.278	0.459525