File: Python/Data/RDE/240222-EIS-Fe2Fe3_5mM-HCl1M-0RPM-Ag_AgCl_BLF8-GC-RDE-5minVsOCV-5ppf-3scans_C15.mpt
EC-Lab ASCII FILE
Nb header lines : 66

Potentio Electrochemical Impedance Spectroscopy

Run on channel : 15 (SN 19485)
User :
Electrode connection : standard
Potential control : Ewe
Ewe ctrl range : min = -1.00 V, max = 1.00 V
Ewe,I filtering : <None>
Safety Limits :
	Do not start on E overload
Channel : Floating
Acquisition started on : 02/22/2024 15:30:34.416
Loaded Setting File :  NONE
Saved on :
	File : 240222-EIS-Fe2Fe3_5mM-HCl1M-0RPM-Ag_AgCl_BLF8-GC-RDE-5minVsOCV-5ppf-3scans_C15.mpr
	Directory : C:\Data\mathias\RDE-RPM-variation\
	Host : 192.168.0.1
Device : VMP-300 (SN 0826)
Address : USB
EC-Lab for windows v11.52 (software)
Internet server v11.52 (firmware)
Command interpretor v11.52 (firmware)
Electrode material :
Initial state :
Electrolyte :
Comments :
Cable : special
Electrode surface area : 0.001 cm²
Characteristic mass : 0.001 g
Equivalent Weight : 0.000 g/eq.
Density : 0.000 g/cm3
Volume (V) : 0.001 cm³
Record EIS quality indicators
Cycle Definition : Charge/Discharge alternance
Mode                Single sine
E (V)               0.0000
vs.                 Ref
tE (h:m:s)          0:05:0.0000
record              0
dI                  0.000
unit dI             mA
dt (s)              0.000
fi                  400.000
unit fi             kHz
ff                  100.000
unit ff             mHz
Nd                  10
Points              per decade
spacing             Logarithmic
Va (mV)             7.0
pw                  0.10
Na                  5
corr                0
E range min (V)     -1.000
E range max (V)     1.000
I Range             Auto
Bandwidth           8
nc cycles           3
goto Ns'            0
nr cycles           0
inc. cycle          1

freq/Hz	Re(Z)/Ohm	-Im(Z)/Ohm	|Z|/Ohm	Phase(Z)/deg	time/s	<Ewe>/V	<I>/mA	Cs/µF	Cp/µF	cycle number	I Range	|Ewe|/V	|I|/A	Ns	(Q-Qo)/mA.h	THD Ewe/%	NSD Ewe/%	NSR Ewe/%	|Ewe h2|/V	|Ewe h3|/V	|Ewe h4|/V	|Ewe h5|/V	|Ewe h6|/V	|Ewe h7|/V	THD I/%	NSD I/%	NSR I/%	|I h2|/A	|I h3|/A	|I h4|/A	|I h5|/A	|I h6|/A	|I h7|/A	Re(Y)/Ohm-1	Im(Y)/Ohm-1	|Y|/Ohm-1	Phase(Y)/deg	Re(C)/nF	Im(C)/nF	|C|/nF	Phase(C)/deg	Re(M)	Im(M)	|M|	Phase(M)/deg	Re(Permittivity)	Im(Permittivity)	|Permittivity|	Phase(Permittivity)/deg	Re(Resistivity)/Ohm.cm	Im(Resistivity)/Ohm.cm	|Resistivity|/Ohm.cm	Phase(Resistivity)/deg	Re(Conductivity)/mS/cm	Im(Conductivity)/mS/cm	|Conductivity|/mS/cm	Phase(Conductivity)/deg	Tan(Delta)	Loss Angle(Delta)/deg	dq/mA.h
399996	3.65827	1.57791	3.98406	-23.3319	303.393	-0.000165778	-0.0214833	0.252163	0.0395545	1	38	0.00652594	0.00163801	0	-0.00193645	-1	-1	-1	0	0	0	0	0	0	-1	-1	-1	0	0	0	0	0	0	0.230475	0.0994104	0.251	23.3319	39.5545	91.7039	99.8707	-66.6681	0.0000000E+000	0.0000000E+000	0.0000000E+000	66.6681	0.0000000E+000	0.0000000E+000	0.0000000E+000	-66.6681	0.0000000E+000	0.0000000E+000	0.0000000E+000	-23.3319	0.0000000E+000	0.0000000E+000	0.0000000E+000	23.3319	2.31842	66.6681	-0.00193645
7967.67	4.16886	5.16817	6.63999	-51.1089	334.223	-0.000258926	-0.0219823	3.86502	2.34149	1	38	0.00732002	0.00110242	0	-0.00213	1.08065	0.433482	17.2753	3.44326e-05	1.57246e-05	2.81285e-05	3.55251e-05	3.2916e-05	2.70181e-05	0.190619	0.0884446	2.56262	1.28714e-06	4.46694e-07	5.61272e-07	5.39595e-07	8.75683e-07	8.44238e-07	0.0945547	0.11722	0.150603	51.1089	2341.49	1888.74	3008.31	-38.8911	0.0000000E+000	0.0000000E+000	0.0000000E+000	38.8911	0.0000000E+000	0.0000000E+000	0.0000000E+000	-38.8911	0.0000000E+000	0.0000000E+000	0.0000000E+000	-51.1089	0.0000000E+000	0.0000000E+000	0.0000000E+000	51.1089	0.806641	38.8911	-9.36244e-06
158.831	44.983	158.585	164.842	-74.1639	365.941	-0.000244833	-0.0204231	6.31862	5.8481	1	39	0.00631516	3.83104e-05	0	-0.00231551	1.13838	0.605391	19.9723	1.96074e-05	3.07313e-05	2.55214e-05	3.12822e-05	3.22993e-05	2.38286e-05	1.73286	1.00588	33.2813	2.47087e-07	2.25611e-07	2.88339e-07	2.84777e-07	2.61403e-07	1.69055e-07	0.00165544	0.00583618	0.00606643	74.1639	5848.1	1658.82	6078.81	-15.8361	0.0000000E+000	0.0000000E+000	0.0000000E+000	15.8361	0.0000000E+000	0.0000000E+000	0.0000000E+000	-15.8361	0.0000000E+000	0.0000000E+000	0.0000000E+000	-74.1639	0.0000000E+000	0.0000000E+000	0.0000000E+000	74.1639	0.283652	15.8361	-1.03199e-05
3.16616	1387.74	3923.3	4161.5	-70.5204	402.064	-0.000250075	-0.0200747	12.8126	11.3878	1	41	0.00704521	1.69295e-06	0	-0.0025175	0.86795	0.385341	15.2389	1.43934e-05	3.59117e-05	1.13975e-05	2.12154e-05	2.76069e-05	1.97502e-05	0.827634	0.357779	12.6886	3.64017e-09	8.20081e-09	1.92198e-09	6.33876e-09	5.34659e-09	4.25884e-09	8.01323e-05	0.000226543	0.000240298	70.5204	11387.8	4028.05	12079.2	-19.4796	0.0000000E+000	0.0000000E+000	0.0000000E+000	19.4796	0.0000000E+000	0.0000000E+000	0.0000000E+000	-19.4796	0.0000000E+000	0.0000000E+000	0.0000000E+000	-70.5204	0.0000000E+000	0.0000000E+000	0.0000000E+000	70.5204	0.353717	19.4796	-2.12399e-05
317705	3.62684	1.28178	3.84668	-19.4642	891.54	-0.000195939	-0.0208837	0.390824	0.0433949	2	38	0.00714482	0.0018574	0	-0.00519236	-1	-1	-1	0	0	0	0	0	0	-1	-1	-1	0	0	0	0	0	0	0.245107	0.0866249	0.259964	19.4642	43.3949	122.787	130.23	-70.5358	0.0000000E+000	0.0000000E+000	0.0000000E+000	70.5358	0.0000000E+000	0.0000000E+000	0.0000000E+000	-70.5358	0.0000000E+000	0.0000000E+000	0.0000000E+000	-19.4642	0.0000000E+000	0.0000000E+000	0.0000000E+000	19.4642	2.82953	70.5358	-1.17186e-05
6332.63	4.36476	6.46092	7.79709	-55.9585	922.478	-0.000309181	-0.0213567	3.88993	2.67095	2	38	0.00715279	0.000917366	0	-0.00536792	0.824938	0.549103	17.9604	2.17929e-05	2.10477e-05	2.41987e-05	1.69559e-05	2.61625e-05	2.01821e-05	0.17338	0.113406	3.06084	6.92843e-07	8.41353e-07	3.59118e-07	5.74685e-07	4.22608e-07	4.9239e-07	0.0717952	0.106274	0.128253	55.9585	2670.95	1804.39	3223.32	-34.0415	0.0000000E+000	0.0000000E+000	0.0000000E+000	34.0415	0.0000000E+000	0.0000000E+000	0.0000000E+000	-34.0415	0.0000000E+000	0.0000000E+000	0.0000000E+000	-55.9585	0.0000000E+000	0.0000000E+000	0.0000000E+000	55.9585	0.675564	34.0415	-1.22475e-05
126.171	54.3013	194.156	201.606	-74.3748	954.1	-0.000253352	-0.0195743	6.49695	6.02563	2	39	0.0064585	3.20352e-05	0	-0.00554445	0.868372	0.419494	19.3685	2.13652e-05	1.79176e-05	2.12905e-05	1.5179e-05	2.51644e-05	2.26383e-05	2.20258	0.818307	40.1473	2.58685e-07	2.45719e-07	2.06473e-07	2.623e-07	2.81962e-07	3.35886e-07	0.00133598	0.00477685	0.00496016	74.3748	6025.63	1685.24	6256.85	-15.6252	0.0000000E+000	0.0000000E+000	0.0000000E+000	15.6252	0.0000000E+000	0.0000000E+000	0.0000000E+000	-15.6252	0.0000000E+000	0.0000000E+000	0.0000000E+000	-74.3748	0.0000000E+000	0.0000000E+000	0.0000000E+000	74.3748	0.279679	15.6252	-9.79909e-06
2.51368	1747.64	4780.5	5089.94	-69.9188	992.818	-0.000256188	-0.0192284	13.2445	11.6831	2	41	0.00643056	1.26339e-06	0	-0.00575065	0.846743	0.479911	14.5139	2.45531e-05	2.07645e-05	2.30545e-05	1.59743e-05	1.97532e-05	1.70312e-05	0.959757	0.570928	14.8358	5.26203e-09	6.16051e-09	4.50246e-09	3.74014e-09	3.81722e-09	3.09946e-09	6.74569e-05	0.000184522	0.000196466	69.9188	11683.1	4271.07	12439.4	-20.0812	0.0000000E+000	0.0000000E+000	0.0000000E+000	20.0812	0.0000000E+000	0.0000000E+000	0.0000000E+000	-20.0812	0.0000000E+000	0.0000000E+000	0.0000000E+000	-69.9188	0.0000000E+000	0.0000000E+000	0.0000000E+000	69.9188	0.365576	20.0812	-2.4674e-05
252347	3.59226	1.08704	3.75313	-16.8362	1479.47	-0.000149225	-0.0188058	0.580195	0.0486723	3	38	0.00722765	0.00192577	0	-0.00830775	-1	-1	-1	0	0	0	0	0	0	-1	-1	-1	0	0	0	0	0	0	0.255024	0.0771721	0.266444	16.8362	48.6723	160.843	168.046	-73.1638	0.0000000E+000	0.0000000E+000	0.0000000E+000	73.1638	0.0000000E+000	0.0000000E+000	0.0000000E+000	-73.1638	0.0000000E+000	0.0000000E+000	0.0000000E+000	-16.8362	0.0000000E+000	0.0000000E+000	0.0000000E+000	16.8362	3.30461	73.1638	-5.79465e-06
5028.39	4.60199	8.06465	9.2853	-60.2893	1510.44	-0.00026709	-0.0196903	3.92469	2.96063	3	38	0.00699191	0.000753008	0	-0.00847444	1.00041	0.646725	18.3251	2.24941e-05	2.37356e-05	2.83271e-05	2.70597e-05	3.10223e-05	2.43197e-05	0.246153	0.115661	3.76615	5.54633e-07	1.07652e-06	3.36216e-07	7.53561e-07	5.70027e-07	7.22603e-07	0.0533769	0.0935391	0.107697	60.2893	2960.63	1689.45	3408.75	-29.7107	0.0000000E+000	0.0000000E+000	0.0000000E+000	29.7107	0.0000000E+000	0.0000000E+000	0.0000000E+000	-29.7107	0.0000000E+000	0.0000000E+000	0.0000000E+000	-60.2893	0.0000000E+000	0.0000000E+000	0.0000000E+000	60.2893	0.570637	29.7107	-1.02759e-05
100.224	67.5512	236.626	246.079	-74.0672	1542.3	-0.000266363	-0.0184664	6.71096	6.20525	3	40	0.00655276	2.66287e-05	0	-0.00863994	1.41962	0.874059	29.6939	3.98135e-05	1.90452e-05	2.99766e-05	3.18195e-05	5.16461e-05	3.37916e-05	0.773245	0.281971	9.34114	4.61762e-08	9.39585e-08	6.40512e-08	1.20325e-07	7.88045e-08	4.98113e-08	0.00111554	0.00390762	0.00406373	74.0672	6205.25	1771.46	6453.15	-15.9328	0.0000000E+000	0.0000000E+000	0.0000000E+000	15.9328	0.0000000E+000	0.0000000E+000	0.0000000E+000	-15.9328	0.0000000E+000	0.0000000E+000	0.0000000E+000	-74.0672	0.0000000E+000	0.0000000E+000	0.0000000E+000	74.0672	0.285477	15.9328	-1.04346e-05
1.99783	2165.6	5762.29	6155.8	-69.4027	1584.6	-0.000250293	-0.0184302	13.825	12.114	3	41	0.00643874	1.04596e-06	0	-0.00885548	0.829539	0.321268	12.7759	1.51873e-05	2.4347e-05	1.52859e-05	2.03106e-05	2.35028e-05	2.25659e-05	0.992551	0.536488	16.1885	2.38683e-09	5.29326e-09	2.89506e-09	4.17164e-09	4.38359e-09	3.83464e-09	5.7149e-05	0.000152064	0.000162448	69.4027	12114	4552.72	12941.3	-20.5973	0.0000000E+000	0.0000000E+000	0.0000000E+000	20.5973	0.0000000E+000	0.0000000E+000	0.0000000E+000	-20.5973	0.0000000E+000	0.0000000E+000	0.0000000E+000	-69.4027	0.0000000E+000	0.0000000E+000	0.0000000E+000	69.4027	0.375822	20.5973	-2.89622e-05
200434	3.57392	0.947036	3.69727	-14.8414	2067.41	-0.000161714	-0.0208037	0.838459	0.0550114	4	38	0.00723763	0.00195756	0	-0.0113458	-1	-1	-1	0	0	0	0	0	0	-1	-1	-1	0	0	0	0	0	0	0.261447	0.0692794	0.27047	14.8414	55.0114	207.602	214.767	-75.1586	0.0000000E+000	0.0000000E+000	0.0000000E+000	75.1586	0.0000000E+000	0.0000000E+000	0.0000000E+000	-75.1586	0.0000000E+000	0.0000000E+000	0.0000000E+000	-14.8414	0.0000000E+000	0.0000000E+000	0.0000000E+000	14.8414	3.7738	75.1586	-7.1391e-06
3993.72	4.90588	9.99949	11.1381	-63.8668	2098.4	-0.000280959	-0.0213399	3.98533	3.21216	4	38	0.00662632	0.000594923	0	-0.011523	1.06353	0.535039	19.4494	2.38239e-05	2.66301e-05	3.76094e-05	2.22462e-05	2.88645e-05	2.06606e-05	0.31084	0.132388	4.72517	8.22878e-07	1.03973e-06	5.22928e-07	5.11801e-07	5.90814e-07	5.11479e-07	0.0395452	0.0806037	0.0897818	63.8668	3212.16	1575.93	3577.92	-26.1332	0.0000000E+000	0.0000000E+000	0.0000000E+000	26.1332	0.0000000E+000	0.0000000E+000	0.0000000E+000	-26.1332	0.0000000E+000	0.0000000E+000	0.0000000E+000	-63.8668	0.0000000E+000	0.0000000E+000	0.0000000E+000	63.8668	0.490613	26.1332	-1.05301e-05
79.6177	81.079	287.058	298.289	-74.2278	2130.21	-0.000280847	-0.0183214	6.9637	6.44921	4	40	0.00649518	2.17748e-05	0	-0.0116909	1.45673	0.811139	29.8386	2.7578e-05	3.39986e-05	1.37882e-05	3.47138e-05	3.81725e-05	5.19284e-05	0.687	0.299459	11.3905	4.11451e-08	7.52033e-08	3.00845e-08	8.37283e-08	5.09388e-08	4.69542e-08	0.000911242	0.00322623	0.00335245	74.2278	6449.21	1821.56	6701.52	-15.7722	0.0000000E+000	0.0000000E+000	0.0000000E+000	15.7722	0.0000000E+000	0.0000000E+000	0.0000000E+000	-15.7722	0.0000000E+000	0.0000000E+000	0.0000000E+000	-74.2278	0.0000000E+000	0.0000000E+000	0.0000000E+000	74.2278	0.282448	15.7722	-8.95637e-06
1.5871	2679.76	6875.2	7378.99	-68.7055	2177.69	-0.000237787	-0.0185165	14.5858	12.6621	4	41	0.00644281	8.73129e-07	0	-0.0119326	0.622604	0.384691	11.6835	1.66268e-05	1.62583e-05	1.1862e-05	1.42561e-05	1.41557e-05	1.8012e-05	0.794778	0.62819	17.9082	3.12416e-09	2.80251e-09	2.03327e-09	2.45573e-09	2.41846e-09	2.60259e-09	4.92156e-05	0.000126268	0.00013552	68.7055	12662.1	4935.36	13590	-21.2945	0.0000000E+000	0.0000000E+000	0.0000000E+000	21.2945	0.0000000E+000	0.0000000E+000	0.0000000E+000	-21.2945	0.0000000E+000	0.0000000E+000	0.0000000E+000	-68.7055	0.0000000E+000	0.0000000E+000	0.0000000E+000	68.7055	0.389773	21.2945	-3.57088e-05
0.0999518	27689.9	49883.1	57053.1	-60.9655	2644.65	-0.000276133	-0.0188297	31.921	24.402	4	41	0.00643344	1.12762e-07	0	-0.0143381	0.218303	0.14082	3.14351	6.56636e-06	4.47644e-06	3.87016e-06	6.33914e-06	5.38378e-06	4.13639e-06	4.5426	34.464	37.8012	3.11384e-09	2.76838e-09	1.28219e-09	1.29118e-09	1.30936e-09	1.00728e-09	8.50674e-06	1.53248e-05	1.75275e-05	60.9655	24402	13545.4	27909.4	-29.0345	0.0000000E+000	0.0000000E+000	0.0000000E+000	29.0345	0.0000000E+000	0.0000000E+000	0.0000000E+000	-29.0345	0.0000000E+000	0.0000000E+000	0.0000000E+000	-60.9655	0.0000000E+000	0.0000000E+000	0.0000000E+000	60.9655	0.555096	29.0345	-0.000530115