File: Python/Data/RDE/240223-OCV-EIS-Fe2Fe3_5mM-HCl1M-2000RPM-Ag_AgCl_BLF8-GC-RDE-AllPreviousVariations_06_PEIS_C15.mpt
EC-Lab ASCII FILE
Nb header lines : 67

Potentio Electrochemical Impedance Spectroscopy

Run on channel : 15 (SN 19485)
User :
Electrode connection : standard
Potential control : Ewe
Ewe ctrl range : min = -1.00 V, max = 1.00 V
Ewe,I filtering : 50 kHz
Safety Limits :
	Do not start on E overload
Channel : Floating
Acquisition started on : 02/23/2024 12:36:41.987
Loaded Setting File :  C:\Data\mathias\RDE-RPM-variation\240222-CV-EIS-Fe2Fe3_5mM-HCl1M-0RPM-Ag_AgCl_BLF8-GC-RDE-DefaultSettings.mps
Saved on :
	File : 240223-OCV-EIS-Fe2Fe3_5mM-HCl1M-2000RPM-Ag_AgCl_BLF8-GC-RDE-AllPreviousVariations_06_PEIS_C15.mpr
	Directory : C:\Data\mathias\RDE-RPM-variation\
	Host : 192.168.0.1
Device : VMP-300 (SN 0826)
Address : USB
EC-Lab for windows v11.52 (software)
Internet server v11.52 (firmware)
Command interpretor v11.52 (firmware)
Electrode material :
Initial state :
Electrolyte :
Comments :
Cable : special
Reference electrode : SCE Saturated Calomel Electrode (0.241 V)
Electrode surface area : 0.001 cm²
Characteristic mass : 0.001 g
Equivalent Weight : 0.000 g/eq.
Density : 0.000 g/cm3
Volume (V) : 0.001 cm³
Record EIS quality indicators
Cycle Definition : Charge/Discharge alternance
Mode                Single sine
E (V)               0.0000
vs.                 Ref
tE (h:m:s)          0:01:0.0000
record              0
dI                  0.000
unit dI             mA
dt (s)              0.000
fi                  400.000
unit fi             kHz
ff                  100.000
unit ff             mHz
Nd                  10
Points              per decade
spacing             Logarithmic
Va (mV)             5.0
pw                  0.10
Na                  3
corr                0
E range min (V)     -1.000
E range max (V)     1.000
I Range             Auto
Bandwidth           8
nc cycles           2
goto Ns'            0
nr cycles           0
inc. cycle          1

freq/Hz	Re(Z)/Ohm	-Im(Z)/Ohm	|Z|/Ohm	Phase(Z)/deg	time/s	<Ewe>/V	<I>/mA	Cs/µF	Cp/µF	cycle number	I Range	|Ewe|/V	|I|/A	Ns	(Q-Qo)/mA.h	THD Ewe/%	NSD Ewe/%	NSR Ewe/%	|Ewe h2|/V	|Ewe h3|/V	|Ewe h4|/V	|Ewe h5|/V	|Ewe h6|/V	|Ewe h7|/V	THD I/%	NSD I/%	NSR I/%	|I h2|/A	|I h3|/A	|I h4|/A	|I h5|/A	|I h6|/A	|I h7|/A	Re(Y)/Ohm-1	Im(Y)/Ohm-1	|Y|/Ohm-1	Phase(Y)/deg	Re(C)/nF	Im(C)/nF	|C|/nF	Phase(C)/deg	Re(M)	Im(M)	|M|	Phase(M)/deg	Re(Permittivity)	Im(Permittivity)	|Permittivity|	Phase(Permittivity)/deg	Re(Resistivity)/Ohm.cm	Im(Resistivity)/Ohm.cm	|Resistivity|/Ohm.cm	Phase(Resistivity)/deg	Re(Conductivity)/mS/cm	Im(Conductivity)/mS/cm	|Conductivity|/mS/cm	Phase(Conductivity)/deg	Tan(Delta)	Loss Angle(Delta)/deg	dq/mA.h
399996	3.50458	1.60744	3.85564	-24.6394	1661.52	-0.000171482	-0.519568	0.247531	0.0430235	1	38	0.00462193	0.00119874	0	-0.00881205	-1	-1	-1	0	0	0	0	0	0	-1	-1	-1	0	0	0	0	0	0	0.235745	0.108129	0.25936	24.6394	43.0235	93.801	103.197	-65.3606	0.0000000E+000	0.0000000E+000	0.0000000E+000	65.3606	0.0000000E+000	0.0000000E+000	0.0000000E+000	-65.3606	0.0000000E+000	0.0000000E+000	0.0000000E+000	-24.6394	0.0000000E+000	0.0000000E+000	0.0000000E+000	24.6394	2.18023	65.3606	-0.00881205
20032.3	3.7806	2.71181	4.65262	-35.6517	1676.43	-0.000170979	-0.518275	2.92975	0.9953	1	38	0.00520465	0.00111865	0	-0.010941	1.08346	0.782652	25.9842	2.07308e-05	1.9256e-05	1.72913e-05	2.56963e-05	1.10596e-05	2.97227e-05	0.150367	0.072209	2.64203	9.67225e-07	6.62048e-07	5.98885e-07	5.84993e-07	4.81317e-07	4.67705e-07	0.174649	0.125275	0.214933	35.6517	995.3	1387.57	1707.62	-54.3483	0.0000000E+000	0.0000000E+000	0.0000000E+000	54.3483	0.0000000E+000	0.0000000E+000	0.0000000E+000	-54.3483	0.0000000E+000	0.0000000E+000	0.0000000E+000	-35.6517	0.0000000E+000	0.0000000E+000	0.0000000E+000	35.6517	1.39413	54.3483	-0.000162876
1002.75	15.1009	33.0887	36.3716	-65.4691	1691.44	-0.000276485	-0.513192	4.79676	3.96991	1	39	0.00528319	0.000145256	0	-0.0130721	1.26474	0.829793	24.1508	1.59784e-05	3.25935e-05	1.52837e-05	2.90288e-05	2.92744e-05	2.45236e-05	0.766217	0.241214	9.03409	5.54517e-07	5.8549e-07	2.57239e-07	4.84311e-07	2.80158e-07	1.76622e-07	0.011415	0.0250123	0.0274939	65.4691	3969.91	1811.77	4363.79	-24.5309	0.0000000E+000	0.0000000E+000	0.0000000E+000	24.5309	0.0000000E+000	0.0000000E+000	0.0000000E+000	-24.5309	0.0000000E+000	0.0000000E+000	0.0000000E+000	-65.4691	0.0000000E+000	0.0000000E+000	0.0000000E+000	65.4691	0.456377	24.5309	-0.00018866
50.2089	162.599	234.714	285.533	-55.2876	1705.73	-0.000231692	-0.51327	13.5052	9.1257	1	39	0.00474501	1.66181e-05	0	-0.0150902	1.59559	0.808712	26.7492	3.03927e-05	3.00539e-05	2.31562e-05	2.55695e-05	3.36791e-05	2.76651e-05	3.4415	2.4228	79.1717	2.18673e-07	1.87945e-07	1.66318e-07	1.42721e-07	3.23469e-07	2.11119e-07	0.00199437	0.0028789	0.00350222	55.2876	9125.7	6321.86	11101.5	-34.7124	0.0000000E+000	0.0000000E+000	0.0000000E+000	34.7124	0.0000000E+000	0.0000000E+000	0.0000000E+000	-34.7124	0.0000000E+000	0.0000000E+000	0.0000000E+000	-55.2876	0.0000000E+000	0.0000000E+000	0.0000000E+000	55.2876	0.692753	34.7124	-0.000150837
2.51368	1097.5	1192.31	1620.52	-47.371	1724.48	-0.000248748	-0.51333	53.1035	28.7467	1	39	0.0047501	2.93122e-06	0	-0.0177425	0.489852	0.341744	10.5091	6.95458e-06	7.75569e-06	7.78312e-06	1.12097e-05	9.17089e-06	9.20793e-06	21.8273	30.1429	177.306	5.35274e-07	2.05164e-07	9.10803e-08	1.16926e-07	1.10454e-07	1.52819e-07	0.00041792	0.000454023	0.000617085	47.371	28746.7	26460.8	39071.1	-42.629	0.0000000E+000	0.0000000E+000	0.0000000E+000	42.629	0.0000000E+000	0.0000000E+000	0.0000000E+000	-42.629	0.0000000E+000	0.0000000E+000	0.0000000E+000	-47.371	0.0000000E+000	0.0000000E+000	0.0000000E+000	47.371	0.920481	42.629	-0.000397571
0.125939	2610.11	312.745	2628.78	-6.83262	1952.72	-0.00026015	-0.511705	4040.84	57.1927	1	39	0.0047462	1.80547e-06	0	-0.0501938	0.139258	0.116902	2.30158	2.40714e-06	3.20441e-06	2.43575e-06	2.60002e-06	2.27289e-06	2.11557e-06	30.4773	20.2038	94.3582	1.94403e-07	2.89793e-07	2.54655e-07	1.32111e-07	7.96945e-08	2.34154e-07	0.000377702	4.52564e-05	0.000380404	6.83262	57192.7	477321	480735	-83.1674	0.0000000E+000	0.0000000E+000	0.0000000E+000	83.1674	0.0000000E+000	0.0000000E+000	0.0000000E+000	-83.1674	0.0000000E+000	0.0000000E+000	0.0000000E+000	-6.83262	0.0000000E+000	0.0000000E+000	0.0000000E+000	6.83262	8.34584	83.1674	-0.00693242
31751	3.64645	1.9012	4.11232	-27.5368	2028.48	-0.00018522	-0.516207	2.63654	0.563529	2	38	0.00523515	0.00127304	0	-0.0609703	1.3462	0.742857	25.7366	3.02976e-05	1.97879e-05	2.49284e-05	2.15363e-05	3.56431e-05	3.18656e-05	0.147728	0.0788082	2.29445	8.58237e-07	9.4867e-07	6.53244e-07	7.35122e-07	6.69754e-07	3.73082e-07	0.215624	0.112423	0.243172	27.5368	563.529	1080.83	1218.92	-62.4632	0.0000000E+000	0.0000000E+000	0.0000000E+000	62.4632	0.0000000E+000	0.0000000E+000	0.0000000E+000	-62.4632	0.0000000E+000	0.0000000E+000	0.0000000E+000	-27.5368	0.0000000E+000	0.0000000E+000	0.0000000E+000	27.5368	1.91797	62.4632	-0.000163722
1589.49	10.6778	23.593	25.8968	-65.6494	2043.32	-0.000270278	-0.513831	4.24403	3.52251	2	38	0.00487303	0.000188171	0	-0.0630659	1.49394	0.617871	27.9011	1.80268e-05	3.04819e-05	2.77768e-05	3.98767e-05	1.99261e-05	1.8728e-05	1.06184	0.517734	15.5748	5.08741e-07	5.56105e-07	9.92497e-07	1.02302e-06	5.55347e-07	7.38736e-07	0.0159216	0.0351796	0.0386148	65.6494	3522.51	1594.22	3866.48	-24.3506	0.0000000E+000	0.0000000E+000	0.0000000E+000	24.3506	0.0000000E+000	0.0000000E+000	0.0000000E+000	-24.3506	0.0000000E+000	0.0000000E+000	0.0000000E+000	-65.6494	0.0000000E+000	0.0000000E+000	0.0000000E+000	65.6494	0.452582	24.3506	-0.000156982
79.6177	117.919	181.029	216.047	-56.9206	2057.92	-0.000313338	-0.511828	11.0424	7.75285	2	39	0.00478572	2.21512e-05	0	-0.06512	1.43641	0.527961	27.1552	1.46212e-05	3.17358e-05	2.05693e-05	2.95158e-05	3.65009e-05	2.54713e-05	3.24022	1.42735	61.4199	2.38246e-07	2.35891e-07	1.82035e-07	3.32469e-07	3.01703e-07	2.98732e-07	0.0025263	0.00387838	0.00462861	56.9206	7752.85	5050.06	9252.55	-33.0794	0.0000000E+000	0.0000000E+000	0.0000000E+000	33.0794	0.0000000E+000	0.0000000E+000	0.0000000E+000	-33.0794	0.0000000E+000	0.0000000E+000	0.0000000E+000	-56.9206	0.0000000E+000	0.0000000E+000	0.0000000E+000	56.9206	0.651381	33.0794	-0.000150647
3.98597	793.438	932.504	1224.38	-49.6066	2073.71	-0.000263194	-0.511315	42.8189	24.8373	2	39	0.00474557	3.87589e-06	0	-0.0673407	0.794037	0.522741	12.9958	1.7606e-05	1.37568e-05	1.96575e-05	1.16243e-05	1.39575e-05	8.47329e-06	15.1904	32.0271	170.072	4.68416e-07	2.1755e-07	8.26658e-08	1.1292e-07	1.5386e-07	1.28813e-07	0.000529274	0.000622039	0.00081674	49.6066	24837.3	21133.2	32611.4	-40.3934	0.0000000E+000	0.0000000E+000	0.0000000E+000	40.3934	0.0000000E+000	0.0000000E+000	0.0000000E+000	-40.3934	0.0000000E+000	0.0000000E+000	0.0000000E+000	-49.6066	0.0000000E+000	0.0000000E+000	0.0000000E+000	49.6066	0.850869	40.3934	-0.000270768
0.199573	2672.97	306.87	2690.52	-6.54916	2219.4	-0.000244224	-0.510622	2598.74	33.8063	2	39	0.00474827	1.76481e-06	0	-0.0879819	0.208639	0.152464	2.76439	3.22352e-06	4.12031e-06	3.94067e-06	2.98228e-06	2.2291e-06	5.91913e-06	29.056	21.5371	99.6357	1.8502e-07	1.73306e-07	1.55658e-07	2.93879e-07	1.60256e-07	1.91636e-07	0.00036925	4.23917e-05	0.000371675	6.54916	33806.3	294467	296402	-83.4508	0.0000000E+000	0.0000000E+000	0.0000000E+000	83.4508	0.0000000E+000	0.0000000E+000	0.0000000E+000	-83.4508	0.0000000E+000	0.0000000E+000	0.0000000E+000	-6.54916	0.0000000E+000	0.0000000E+000	0.0000000E+000	6.54916	8.71043	83.4508	-0.0043803
50326.6	3.51755	1.35163	3.76829	-21.0194	2380.53	-0.000167605	-0.512831	2.33973	0.301016	3	38	0.00514806	0.00136615	0	-0.110807	1.20658	0.85421	26.3501	2.12045e-05	2.42631e-05	2.17221e-05	1.75651e-05	2.31961e-05	3.0835e-05	0.0895492	0.0968367	2.16568	5.81875e-07	5.32002e-07	4.58275e-07	3.89143e-07	4.60689e-07	2.19154e-07	0.247714	0.0951848	0.265372	21.0194	301.016	783.381	839.224	-68.9806	0.0000000E+000	0.0000000E+000	0.0000000E+000	68.9806	0.0000000E+000	0.0000000E+000	0.0000000E+000	-68.9806	0.0000000E+000	0.0000000E+000	0.0000000E+000	-21.0194	0.0000000E+000	0.0000000E+000	0.0000000E+000	21.0194	2.60245	68.9806	-0.000160552
2519.19	7.86244	16.3625	18.1535	-64.335	2395.22	-0.000269868	-0.511729	3.86109	3.13681	3	38	0.00457682	0.000252118	0	-0.112877	1.80078	1.05864	29.6016	3.50094e-05	3.7398e-05	1.91223e-05	3.0456e-05	3.82646e-05	2.7216e-05	0.747481	0.271622	11.7541	8.28097e-07	5.00765e-07	5.78035e-07	8.416e-07	7.98074e-07	7.81835e-07	0.0238582	0.0496511	0.0550858	64.335	3136.81	1507.29	3480.16	-25.665	0.0000000E+000	0.0000000E+000	0.0000000E+000	25.665	0.0000000E+000	0.0000000E+000	0.0000000E+000	-25.665	0.0000000E+000	0.0000000E+000	0.0000000E+000	-64.335	0.0000000E+000	0.0000000E+000	0.0000000E+000	64.335	0.480516	25.665	-0.000156425
126.171	85.436	134.09	158.995	-57.4966	2410.08	-0.00025557	-0.51032	9.40727	6.69097	3	39	0.00490758	3.08662e-05	0	-0.114963	1.35445	0.847528	26.5949	2.94051e-05	2.04438e-05	4.18449e-05	1.91905e-05	1.5527e-05	2.14751e-05	2.73694	1.13377	43.7252	3.70089e-07	3.27863e-07	4.66311e-07	2.5795e-07	2.62501e-07	2.6167e-07	0.00337966	0.00530431	0.0062895	57.4966	6690.97	4263.18	7933.71	-32.5034	0.0000000E+000	0.0000000E+000	0.0000000E+000	32.5034	0.0000000E+000	0.0000000E+000	0.0000000E+000	-32.5034	0.0000000E+000	0.0000000E+000	0.0000000E+000	-57.4966	0.0000000E+000	0.0000000E+000	0.0000000E+000	57.4966	0.637154	32.5034	-0.00015476
6.31569	611.208	688.588	920.722	-48.4069	2424.51	-0.000239921	-0.50941	36.5965	20.4693	3	39	0.00489136	5.31253e-06	0	-0.116986	0.945227	0.542527	18.5806	1.66258e-05	1.9215e-05	1.91875e-05	1.83809e-05	2.25779e-05	1.0447e-05	9.88533	14.4155	178.914	2.60873e-07	1.71038e-07	2.86977e-07	1.52134e-07	2.08231e-07	1.16019e-07	0.000720995	0.000812274	0.0010861	48.4069	20469.2	18169	27369.8	-41.5931	0.0000000E+000	0.0000000E+000	0.0000000E+000	41.5931	0.0000000E+000	0.0000000E+000	0.0000000E+000	-41.5931	0.0000000E+000	0.0000000E+000	0.0000000E+000	-48.4069	0.0000000E+000	0.0000000E+000	0.0000000E+000	48.4069	0.887625	41.5931	-0.000193501
0.316193	2458.17	992.969	2651.15	-21.996	2518.21	-0.000248443	-0.509249	506.912	71.1106	3	39	0.00490088	1.84858e-06	0	-0.130213	0.203223	0.146773	3.53986	2.17845e-06	3.19309e-06	3.00117e-06	4.69191e-06	5.82071e-06	2.91495e-06	31.5428	23.1528	109.083	2.19821e-07	3.09423e-07	1.65122e-07	1.78775e-07	2.27627e-07	2.36444e-07	0.000349738	0.000141275	0.000377194	21.996	71110.6	176040	189860	-68.004	0.0000000E+000	0.0000000E+000	0.0000000E+000	68.004	0.0000000E+000	0.0000000E+000	0.0000000E+000	-68.004	0.0000000E+000	0.0000000E+000	0.0000000E+000	-21.996	0.0000000E+000	0.0000000E+000	0.0000000E+000	21.996	2.47558	68.004	-0.00277328
0.0999518	2454.37	41.4669	2454.72	-0.967926	2722.8	-0.000248004	-0.508797	38399.8	10.9579	3	39	0.00490243	1.99714e-06	0	-0.159109	0.114379	0.147658	2.1724	1.56552e-06	3.55555e-06	1.40968e-06	2.81822e-06	1.99442e-06	1.20651e-06	23.6799	13.0166	83.8081	2.28889e-07	1.26193e-07	2.81287e-07	1.58849e-07	1.25289e-07	1.32518e-07	0.00040732	6.88171e-06	0.000407378	0.967926	10957.9	648583	648675	-89.0321	0.0000000E+000	0.0000000E+000	0.0000000E+000	89.0321	0.0000000E+000	0.0000000E+000	0.0000000E+000	-89.0321	0.0000000E+000	0.0000000E+000	0.0000000E+000	-0.967926	0.0000000E+000	0.0000000E+000	0.0000000E+000	0.967926	59.1888	89.0321	-0.00866989