File: Python/Data/RDE/240223-OCV-EIS-Fe2Fe3_5mM-HCl1M-225RPM-Ag_AgCl_BLF8-GC-RDE-1minRestVSEoc-3ppf-14p1mVAmplitude_05_OCV_C15.mpt
EC-Lab ASCII FILE
Nb header lines : 47

Open Circuit Voltage

Run on channel : 15 (SN 19485)
User :
Electrode connection : standard
Potential control : Ewe
Ewe ctrl range : min = -1.00 V, max = 1.00 V
Ewe,I filtering : 50 kHz
Safety Limits :
	Do not start on E overload
Channel : Floating
Acquisition started on : 02/23/2024 15:54:32.363
Loaded Setting File :  NONE
Saved on :
	File : 240223-OCV-EIS-Fe2Fe3_5mM-HCl1M-225RPM-Ag_AgCl_BLF8-GC-RDE-1minRestVSEoc-3ppf-14p1mVAmplitude_05_OCV_C15.mpr
	Directory : C:\Data\mathias\RDE-RPM-variation\
	Host : 192.168.0.1
Device : VMP-300 (SN 0826)
Address : USB
EC-Lab for windows v11.52 (software)
Internet server v11.52 (firmware)
Command interpretor v11.52 (firmware)
Electrode material :
Initial state :
Electrolyte :
Comments :
Cable : special
Reference electrode : SCE Saturated Calomel Electrode (0.241 V)
Electrode surface area : 0.001 cm²
Characteristic mass : 0.001 g
Equivalent Weight : 0.000 g/eq.
Density : 0.000 g/cm3
Volume (V) : 0.001 cm³
Record EIS quality indicators
Cycle Definition : Charge/Discharge alternance
tR (h:m:s)          0:01:0.0000
dER/dt (mV/h)       1.0
record              <Ewe>
dER (mV)            0.00
dtR (s)             0.5000
E range min (V)     -1.000
E range max (V)     1.000

mode	error	time/s	<Ewe/V>
3	0	961.472	0.458242
3	0	961.972	0.459202
3	0	962.472	0.459423
3	0	962.972	0.459506
3	0	963.472	0.459543
3	0	963.972	0.459564
3	0	964.472	0.459576
3	0	964.972	0.45958
3	0	965.472	0.459584
3	0	965.972	0.45959
3	0	966.472	0.459586
3	0	966.972	0.459584
3	0	967.472	0.459586
3	0	967.972	0.459585
3	0	968.472	0.459584
3	0	968.972	0.459582
3	0	969.472	0.459581
3	0	969.972	0.45958
3	0	970.472	0.459579
3	0	970.972	0.459581
3	0	971.472	0.459583
3	0	971.972	0.459581
3	0	972.472	0.459581
3	0	972.972	0.459583
3	0	973.472	0.459579
3	0	973.972	0.459577
3	0	974.472	0.459578
3	0	974.972	0.459578
3	0	975.472	0.459574
3	0	975.972	0.459576
3	0	976.472	0.459576
3	0	976.972	0.459577
3	0	977.472	0.459574
3	0	977.972	0.459575
3	0	978.472	0.459575
3	0	978.972	0.459574
3	0	979.472	0.459576
3	0	979.972	0.459578
3	0	980.472	0.45958
3	0	980.972	0.459583
3	0	981.472	0.459582
3	0	981.972	0.45958
3	0	982.472	0.459578
3	0	982.972	0.459579
3	0	983.472	0.459578
3	0	983.972	0.45957
3	0	984.472	0.459568
3	0	984.972	0.459568
3	0	985.472	0.459571
3	0	985.972	0.459571
3	0	986.472	0.459574
3	0	986.972	0.459575
3	0	987.472	0.459574
3	0	987.972	0.459574
3	0	988.472	0.459571
3	0	988.972	0.459571
3	0	989.472	0.45957
3	0	989.972	0.459569
3	0	990.472	0.459571
3	0	990.972	0.459573
3	0	991.472	0.459568
3	0	991.972	0.459563
3	0	992.472	0.459561
3	0	992.972	0.45956
3	0	993.472	0.459559
3	0	993.972	0.459563
3	0	994.472	0.45956
3	0	994.972	0.459558
3	0	995.472	0.459559
3	0	995.972	0.459559
3	0	996.472	0.459559
3	0	996.972	0.459556
3	0	997.472	0.459557
3	0	997.972	0.459555
3	0	998.472	0.459556
3	0	998.972	0.459556
3	0	999.472	0.459553
3	0	999.972	0.459551
3	0	1000.47	0.459555
3	0	1000.97	0.459554
3	0	1001.47	0.459551
3	0	1001.97	0.459553
3	0	1002.47	0.459553
3	0	1002.97	0.459554
3	0	1003.47	0.459554
3	0	1003.97	0.459556
3	0	1004.47	0.459552
3	0	1004.97	0.459555
3	0	1005.47	0.459555
3	0	1005.97	0.459555
3	0	1006.47	0.459557
3	0	1006.97	0.459556
3	0	1007.47	0.459557
3	0	1007.97	0.459557
3	0	1008.47	0.459555
3	0	1008.97	0.459557
3	0	1009.47	0.459558
3	0	1009.97	0.459559
3	0	1010.47	0.459558
3	0	1010.97	0.459556
3	0	1011.47	0.459559
3	0	1011.97	0.459557
3	0	1012.47	0.459559
3	0	1012.97	0.459556
3	0	1013.47	0.45955
3	0	1013.97	0.45955
3	0	1014.47	0.45955
3	0	1014.97	0.459551
3	0	1015.47	0.459553
3	0	1015.97	0.459553
3	0	1016.47	0.459552
3	0	1016.97	0.459555
3	0	1017.47	0.459555
3	0	1017.97	0.459554
3	0	1018.47	0.459558
3	0	1018.97	0.459557
3	0	1019.47	0.459559
3	0	1019.97	0.45956
3	0	1020.47	0.45956
3	0	1020.97	0.45956
3	0	1021.13	0.459559