File: Python/Data/RDE/240223-OCV-EIS-Fe2Fe3_5mM-HCl1M-2000RPM-Ag_AgCl_BLF8-GC-RDE-1minRestVSEoc-3ppf-14p1mVAmplitude_06_PEIS_C15.mpt
EC-Lab ASCII FILE
Nb header lines : 67

Potentio Electrochemical Impedance Spectroscopy

Run on channel : 15 (SN 19485)
User :
Electrode connection : standard
Potential control : Ewe
Ewe ctrl range : min = -1.00 V, max = 1.00 V
Ewe,I filtering : 50 kHz
Safety Limits :
	Do not start on E overload
Channel : Floating
Acquisition started on : 02/23/2024 14:14:06.635
Loaded Setting File :  NONE
Saved on :
	File : 240223-OCV-EIS-Fe2Fe3_5mM-HCl1M-2000RPM-Ag_AgCl_BLF8-GC-RDE-1minRestVSEoc-3ppf-14p1mVAmplitude_06_PEIS_C15.mpr
	Directory : C:\Data\mathias\RDE-RPM-variation\
	Host : 192.168.0.1
Device : VMP-300 (SN 0826)
Address : USB
EC-Lab for windows v11.52 (software)
Internet server v11.52 (firmware)
Command interpretor v11.52 (firmware)
Electrode material :
Initial state :
Electrolyte :
Comments :
Cable : special
Reference electrode : SCE Saturated Calomel Electrode (0.241 V)
Electrode surface area : 0.001 cm²
Characteristic mass : 0.001 g
Equivalent Weight : 0.000 g/eq.
Density : 0.000 g/cm3
Volume (V) : 0.001 cm³
Record EIS quality indicators
Cycle Definition : Charge/Discharge alternance
Mode                Single sine
E (V)               0.0000
vs.                 Eoc
tE (h:m:s)          0:01:0.0000
record              0
dI                  0.000
unit dI             mA
dt (s)              0.000
fi                  1.000
unit fi             MHz
ff                  100.000
unit ff             mHz
Nd                  10
Points              per decade
spacing             Logarithmic
Va (mV)             14.1
pw                  0.10
Na                  3
corr                0
E range min (V)     -1.000
E range max (V)     1.000
I Range             Auto
Bandwidth           8
nc cycles           0
goto Ns'            0
nr cycles           0
inc. cycle          1

freq/Hz	Re(Z)/Ohm	-Im(Z)/Ohm	|Z|/Ohm	Phase(Z)/deg	time/s	<Ewe>/V	<I>/mA	Cs/µF	Cp/µF	cycle number	I Range	|Ewe|/V	|I|/A	Ns	(Q-Qo)/mA.h	THD Ewe/%	NSD Ewe/%	NSR Ewe/%	|Ewe h2|/V	|Ewe h3|/V	|Ewe h4|/V	|Ewe h5|/V	|Ewe h6|/V	|Ewe h7|/V	THD I/%	NSD I/%	NSR I/%	|I h2|/A	|I h3|/A	|I h4|/A	|I h5|/A	|I h6|/A	|I h7|/A	Re(Y)/Ohm-1	Im(Y)/Ohm-1	|Y|/Ohm-1	Phase(Y)/deg	Re(C)/nF	Im(C)/nF	|C|/nF	Phase(C)/deg	Re(M)	Im(M)	|M|	Phase(M)/deg	Re(Permittivity)	Im(Permittivity)	|Permittivity|	Phase(Permittivity)/deg	Re(Resistivity)/Ohm.cm	Im(Resistivity)/Ohm.cm	|Resistivity|/Ohm.cm	Phase(Resistivity)/deg	Re(Conductivity)/mS/cm	Im(Conductivity)/mS/cm	|Conductivity|/mS/cm	Phase(Conductivity)/deg	Tan(Delta)	Loss Angle(Delta)/deg	dq/mA.h
1.00002e+06	3.54873	4.07759	5.40557	-48.9669	1088.4	0.459684	-0.0121438	0.0390309	0.0222091	1	38	0.0111452	0.0020618	0	-2.94151e-06	-1	-1	-1	0	0	0	0	0	0	-1	-1	-1	0	0	0	0	0	0	0.121448	0.139547	0.184994	48.9669	22.2091	19.3287	29.4422	-41.0331	0.0000000E+000	0.0000000E+000	0.0000000E+000	41.0331	0.0000000E+000	0.0000000E+000	0.0000000E+000	-41.0331	0.0000000E+000	0.0000000E+000	0.0000000E+000	-48.9669	0.0000000E+000	0.0000000E+000	0.0000000E+000	48.9669	0.870302	41.0331	-2.94151e-06
316230	3.45957	1.35381	3.71503	-21.3716	1094.01	0.459678	-0.00345409	0.371756	0.0493688	1	38	0.0145707	0.00392209	0	-5.11517e-06	-1	-1	-1	0	0	0	0	0	0	-1	-1	-1	0	0	0	0	0	0	0.250668	0.0980924	0.269177	21.3716	49.3688	126.158	135.474	-68.6284	0.0000000E+000	0.0000000E+000	0.0000000E+000	68.6284	0.0000000E+000	0.0000000E+000	0.0000000E+000	-68.6284	0.0000000E+000	0.0000000E+000	0.0000000E+000	-21.3716	0.0000000E+000	0.0000000E+000	0.0000000E+000	21.3716	2.55542	68.6284	7.74697e-06
100004	3.43426	1.02578	3.58419	-16.6304	1099.74	0.459659	-0.00242629	1.55149	0.127081	1	38	0.0145804	0.00406799	0	-7.08988e-07	0.439106	0.30371	8.79513	2.49614e-05	1.42855e-05	2.8211e-05	1.39294e-05	3.27412e-05	2.84953e-05	0.0669741	0.0287484	0.709913	1.84175e-06	1.48854e-06	5.85714e-07	7.4375e-07	5.65996e-07	4.91672e-07	0.267333	0.07985	0.279003	16.6304	127.081	425.458	444.031	-73.3696	0.0000000E+000	0.0000000E+000	0.0000000E+000	73.3696	0.0000000E+000	0.0000000E+000	0.0000000E+000	-73.3696	0.0000000E+000	0.0000000E+000	0.0000000E+000	-16.6304	0.0000000E+000	0.0000000E+000	0.0000000E+000	16.6304	3.34794	73.3696	5.49558e-06
31621.1	3.61457	2.08056	4.17059	-29.9249	1105.48	0.459661	-0.00285082	2.41915	0.602042	1	38	0.0146495	0.00351256	0	-5.95111e-06	0.413873	0.438365	8.8265	1.35322e-05	3.58267e-05	1.36309e-05	2.00024e-05	2.61212e-05	1.88326e-05	0.0725357	0.0442027	0.803508	7.72414e-07	1.57704e-06	1.07052e-06	6.1749e-07	5.05631e-07	1.03146e-06	0.207807	0.119615	0.239774	29.9249	602.042	1045.93	1206.83	-60.0751	0.0000000E+000	0.0000000E+000	0.0000000E+000	60.0751	0.0000000E+000	0.0000000E+000	0.0000000E+000	-60.0751	0.0000000E+000	0.0000000E+000	0.0000000E+000	-29.9249	0.0000000E+000	0.0000000E+000	0.0000000E+000	29.9249	1.73731	60.0751	-7.50643e-07
10002.2	4.21557	5.62298	7.02773	-53.1409	1111.21	0.459675	-0.00273916	2.82981	1.81159	1	38	0.0146131	0.00207936	0	-1.50349e-05	0.466761	0.312627	8.81059	3.10233e-05	3.70931e-05	3.19926e-05	5.59072e-06	1.17493e-05	2.24814e-05	0.202807	0.0601889	1.42633	3.71113e-06	7.71223e-07	5.92624e-07	1.1609e-06	8.00518e-07	7.10032e-07	0.0853546	0.113851	0.142293	53.1409	1811.59	1358.16	2264.17	-36.8591	0.0000000E+000	0.0000000E+000	0.0000000E+000	36.8591	0.0000000E+000	0.0000000E+000	0.0000000E+000	-36.8591	0.0000000E+000	0.0000000E+000	0.0000000E+000	-53.1409	0.0000000E+000	0.0000000E+000	0.0000000E+000	53.1409	0.749704	36.8591	-6.65711e-07
3163.04	6.32973	15.6192	16.8531	-67.9396	1116.77	0.459544	-0.00353238	3.22148	2.76705	1	38	0.0126858	0.000752728	0	-2.19679e-05	0.573925	0.360395	10.2124	3.08043e-05	1.57901e-05	4.26894e-05	2.88877e-05	1.95298e-05	2.19755e-05	0.696717	0.132883	3.85121	4.34884e-06	2.45508e-06	5.03614e-07	1.25217e-06	3.9629e-07	5.66855e-07	0.0222858	0.0549923	0.0593364	67.9396	2767.05	1121.35	2985.63	-22.0604	0.0000000E+000	0.0000000E+000	0.0000000E+000	22.0604	0.0000000E+000	0.0000000E+000	0.0000000E+000	-22.0604	0.0000000E+000	0.0000000E+000	0.0000000E+000	-67.9396	0.0000000E+000	0.0000000E+000	0.0000000E+000	67.9396	0.405252	22.0604	-7.42341e-07
999.682	13.4331	42.1342	44.2238	-72.3168	1122.78	0.45957	-0.000633898	3.77854	3.4299	1	39	0.0144792	0.000327408	0	-2.77091e-05	0.561514	0.262038	8.51861	3.48562e-05	5.08793e-05	2.91039e-05	2.47093e-05	2.16742e-05	1.68739e-05	1.18033	0.105336	3.8362	3.17254e-06	2.03107e-06	1.35594e-07	7.58839e-07	2.56668e-07	2.20594e-07	0.00686856	0.0215439	0.0226123	72.3168	3429.9	1093.51	3600	-17.6832	0.0000000E+000	0.0000000E+000	0.0000000E+000	17.6832	0.0000000E+000	0.0000000E+000	0.0000000E+000	-17.6832	0.0000000E+000	0.0000000E+000	0.0000000E+000	-72.3168	0.0000000E+000	0.0000000E+000	0.0000000E+000	72.3168	0.318818	17.6832	-2.92848e-07
316.316	35.3123	108.854	114.439	-72.0269	1128.31	0.459591	-0.000566993	4.62226	4.18215	1	39	0.0133268	0.000116454	0	-2.80396e-05	0.588825	0.237528	9.29942	2.06776e-05	3.47486e-05	3.03329e-05	2.15086e-05	3.2752e-05	2.47317e-05	1.02213	0.237774	11.1507	8.96208e-07	4.21041e-07	2.47194e-07	3.35293e-07	3.44153e-07	1.98021e-07	0.00269638	0.00831189	0.00873831	72.0269	4182.15	1356.69	4396.7	-17.9731	0.0000000E+000	0.0000000E+000	0.0000000E+000	17.9731	0.0000000E+000	0.0000000E+000	0.0000000E+000	-17.9731	0.0000000E+000	0.0000000E+000	0.0000000E+000	-72.0269	0.0000000E+000	0.0000000E+000	0.0000000E+000	72.0269	0.3244	17.9731	-2.23295e-08
99.9682	101.835	271.013	289.514	-69.4059	1134.07	0.459585	-0.000111968	5.87446	5.14764	1	40	0.0134115	4.63241e-05	0	-2.8522e-05	0.632038	0.307635	14.6497	1.64665e-05	3.97771e-05	2.03663e-05	1.7871e-05	4.12976e-05	4.69724e-05	0.910823	0.159754	5.58526	3.32674e-07	1.66907e-07	3.609e-08	1.73801e-07	6.35442e-08	5.15268e-08	0.00121495	0.00323333	0.00345406	69.4059	5147.64	1934.27	5499.06	-20.5941	0.0000000E+000	0.0000000E+000	0.0000000E+000	20.5941	0.0000000E+000	0.0000000E+000	0.0000000E+000	-20.5941	0.0000000E+000	0.0000000E+000	0.0000000E+000	-69.4059	0.0000000E+000	0.0000000E+000	0.0000000E+000	69.4059	0.375758	20.5941	-7.0219e-08
31.6296	315.53	627.155	702.056	-63.2924	1139.4	0.459604	-0.000147061	8.02328	6.40263	1	40	0.0131651	1.87522e-05	0	-2.87732e-05	0.913453	0.44333	15.4132	5.48993e-05	4.50506e-05	4.43469e-05	4.46817e-05	3.35813e-05	5.36951e-05	0.988031	0.399021	14.4106	1.13342e-07	6.3685e-08	6.725e-08	7.40688e-08	2.52922e-08	6.21996e-08	0.000640173	0.00127242	0.00142439	63.2924	6402.63	3221.25	7167.29	-26.7076	0.0000000E+000	0.0000000E+000	0.0000000E+000	26.7076	0.0000000E+000	0.0000000E+000	0.0000000E+000	-26.7076	0.0000000E+000	0.0000000E+000	0.0000000E+000	-63.2924	0.0000000E+000	0.0000000E+000	0.0000000E+000	63.2924	0.503113	26.7076	-6.18446e-08
9.99682	970.936	1232.13	1568.71	-51.7613	1145.1	0.459556	-8.18316e-05	12.9212	7.97128	1	41	0.0132079	8.41961e-06	0	-2.89613e-05	1.06974	0.56604	19.2147	2.25422e-05	5.82809e-05	0.000100204	3.88246e-05	3.68994e-05	4.28105e-05	0.896043	0.15943	5.90289	5.80288e-08	3.4238e-08	1.56662e-08	2.55429e-08	1.059e-08	6.63635e-09	0.000394552	0.000500691	0.000637466	51.7613	7971.28	6281.5	10148.8	-38.2387	0.0000000E+000	0.0000000E+000	0.0000000E+000	38.2387	0.0000000E+000	0.0000000E+000	0.0000000E+000	-38.2387	0.0000000E+000	0.0000000E+000	0.0000000E+000	-51.7613	0.0000000E+000	0.0000000E+000	0.0000000E+000	51.7613	0.788016	38.2387	-6.14281e-08
3.16296	2322.88	1516.32	2773.98	-33.1355	1153.54	0.459562	-7.8786e-05	33.1846	9.91538	1	41	0.0131861	4.75349e-06	0	-2.91484e-05	0.41856	0.276196	8.49004	2.26735e-05	1.95887e-05	1.48999e-05	2.62473e-05	2.43887e-05	1.81683e-05	0.842803	0.164099	4.91928	3.456e-08	1.62271e-08	2.06168e-09	1.01717e-08	3.16975e-09	3.58662e-09	0.000301869	0.000197053	0.000360492	33.1355	9915.38	15189.6	18139.4	-56.8645	0.0000000E+000	0.0000000E+000	0.0000000E+000	56.8645	0.0000000E+000	0.0000000E+000	0.0000000E+000	-56.8645	0.0000000E+000	0.0000000E+000	0.0000000E+000	-33.1355	0.0000000E+000	0.0000000E+000	0.0000000E+000	33.1355	1.53192	56.8645	-1.64812e-08
1.00006	3462.5	1026.37	3611.42	-16.5112	1177.29	0.459588	-7.66057e-05	155.056	12.524	1	42	0.0131691	3.64651e-06	0	-2.96801e-05	0.193046	0.121385	4.59384	1.0848e-05	9.50296e-06	8.8196e-06	1.35683e-05	6.99289e-06	8.0723e-06	0.735116	0.0608162	1.37576	2.38928e-08	1.13844e-08	7.44808e-10	4.08475e-09	4.40169e-10	5.4234e-10	0.000265481	7.86953e-05	0.000276899	16.5112	12524	42250	44067.1	-73.4888	0.0000000E+000	0.0000000E+000	0.0000000E+000	73.4888	0.0000000E+000	0.0000000E+000	0.0000000E+000	-73.4888	0.0000000E+000	0.0000000E+000	0.0000000E+000	-16.5112	0.0000000E+000	0.0000000E+000	0.0000000E+000	16.5112	3.37353	73.4888	-2.91499e-07
0.316193	3954.68	515.925	3988.19	-7.43279	1243.09	0.459574	-8.01018e-05	975.621	16.3268	1	42	0.0131682	3.30181e-06	0	-3.11427e-05	0.177212	0.0636037	2.5402	8.54162e-06	1.37582e-05	5.62542e-06	9.12747e-06	8.73176e-06	8.16041e-06	0.748141	0.0350573	1.48694	2.23396e-08	1.01218e-08	2.76411e-10	2.90779e-09	2.308e-10	2.27986e-10	0.000248633	3.24365e-05	0.00025074	7.43279	16326.8	125149	126209	-82.5672	0.0000000E+000	0.0000000E+000	0.0000000E+000	82.5672	0.0000000E+000	0.0000000E+000	0.0000000E+000	-82.5672	0.0000000E+000	0.0000000E+000	0.0000000E+000	-7.43279	0.0000000E+000	0.0000000E+000	0.0000000E+000	7.43279	7.66522	82.5672	-1.37907e-07
0.0999518	4164.12	229.031	4170.42	-3.14816	1447.67	0.459578	-8.39613e-05	6952.4	20.9684	1	42	0.0131673	3.15731e-06	0	-3.7187e-05	0.118992	0.0632156	1.46641	3.03337e-06	7.31657e-06	3.30144e-06	1.18411e-05	2.59708e-06	3.73447e-06	0.78883	0.038168	1.41986	2.28482e-08	9.59909e-09	1.42704e-10	2.43391e-09	3.43338e-10	1.34572e-10	0.000239422	1.31685e-05	0.000239784	3.14816	20968.4	381236	381812	-86.8518	0.0000000E+000	0.0000000E+000	0.0000000E+000	86.8518	0.0000000E+000	0.0000000E+000	0.0000000E+000	-86.8518	0.0000000E+000	0.0000000E+000	0.0000000E+000	-3.14816	0.0000000E+000	0.0000000E+000	0.0000000E+000	3.14816	18.1815	86.8518	-1.9242e-06