File: Python/Data/RDE/240223-OCV-EIS-Fe2Fe3_5mM-HCl1M-2000RPM-Ag_AgCl_BLF8-GC-RDE-1minRestVSEoc-3ppf-14p1mVAmplitude_04_PEIS_C15.mpt
EC-Lab ASCII FILE
Nb header lines : 67

Potentio Electrochemical Impedance Spectroscopy

Run on channel : 15 (SN 19485)
User :
Electrode connection : standard
Potential control : Ewe
Ewe ctrl range : min = -1.00 V, max = 1.00 V
Ewe,I filtering : 50 kHz
Safety Limits :
	Do not start on E overload
Channel : Floating
Acquisition started on : 02/23/2024 14:14:06.635
Loaded Setting File :  NONE
Saved on :
	File : 240223-OCV-EIS-Fe2Fe3_5mM-HCl1M-2000RPM-Ag_AgCl_BLF8-GC-RDE-1minRestVSEoc-3ppf-14p1mVAmplitude_04_PEIS_C15.mpr
	Directory : C:\Data\mathias\RDE-RPM-variation\
	Host : 192.168.0.1
Device : VMP-300 (SN 0826)
Address : USB
EC-Lab for windows v11.52 (software)
Internet server v11.52 (firmware)
Command interpretor v11.52 (firmware)
Electrode material :
Initial state :
Electrolyte :
Comments :
Cable : special
Reference electrode : SCE Saturated Calomel Electrode (0.241 V)
Electrode surface area : 0.001 cm²
Characteristic mass : 0.001 g
Equivalent Weight : 0.000 g/eq.
Density : 0.000 g/cm3
Volume (V) : 0.001 cm³
Record EIS quality indicators
Cycle Definition : Charge/Discharge alternance
Mode                Single sine
E (V)               0.0000
vs.                 Eoc
tE (h:m:s)          0:01:0.0000
record              0
dI                  0.000
unit dI             mA
dt (s)              0.000
fi                  1.000
unit fi             MHz
ff                  100.000
unit ff             mHz
Nd                  10
Points              per decade
spacing             Logarithmic
Va (mV)             14.1
pw                  0.10
Na                  3
corr                0
E range min (V)     -1.000
E range max (V)     1.000
I Range             Auto
Bandwidth           8
nc cycles           0
goto Ns'            0
nr cycles           0
inc. cycle          1

freq/Hz	Re(Z)/Ohm	-Im(Z)/Ohm	|Z|/Ohm	Phase(Z)/deg	time/s	<Ewe>/V	<I>/mA	Cs/µF	Cp/µF	cycle number	I Range	|Ewe|/V	|I|/A	Ns	(Q-Qo)/mA.h	THD Ewe/%	NSD Ewe/%	NSR Ewe/%	|Ewe h2|/V	|Ewe h3|/V	|Ewe h4|/V	|Ewe h5|/V	|Ewe h6|/V	|Ewe h7|/V	THD I/%	NSD I/%	NSR I/%	|I h2|/A	|I h3|/A	|I h4|/A	|I h5|/A	|I h6|/A	|I h7|/A	Re(Y)/Ohm-1	Im(Y)/Ohm-1	|Y|/Ohm-1	Phase(Y)/deg	Re(C)/nF	Im(C)/nF	|C|/nF	Phase(C)/deg	Re(M)	Im(M)	|M|	Phase(M)/deg	Re(Permittivity)	Im(Permittivity)	|Permittivity|	Phase(Permittivity)/deg	Re(Resistivity)/Ohm.cm	Im(Resistivity)/Ohm.cm	|Resistivity|/Ohm.cm	Phase(Resistivity)/deg	Re(Conductivity)/mS/cm	Im(Conductivity)/mS/cm	|Conductivity|/mS/cm	Phase(Conductivity)/deg	Tan(Delta)	Loss Angle(Delta)/deg	dq/mA.h
1.00002e+06	3.5515	4.08682	5.41435	-49.0089	605.796	0.459681	-0.0123393	0.0389428	0.0221873	1	38	0.01116	0.00206119	0	-6.69802e-06	-1	-1	-1	0	0	0	0	0	0	-1	-1	-1	0	0	0	0	0	0	0.121149	0.13941	0.184694	49.0089	22.1873	19.281	29.3945	-40.9911	0.0000000E+000	0.0000000E+000	0.0000000E+000	40.9911	0.0000000E+000	0.0000000E+000	0.0000000E+000	-40.9911	0.0000000E+000	0.0000000E+000	0.0000000E+000	-49.0089	0.0000000E+000	0.0000000E+000	0.0000000E+000	49.0089	0.869013	40.9911	-6.69802e-06
316230	3.46255	1.34944	3.71621	-21.292	611.397	0.459686	-0.00369055	0.372962	0.0491778	1	38	0.0145861	0.003925	0	-3.08655e-05	-1	-1	-1	0	0	0	0	0	0	-1	-1	-1	0	0	0	0	0	0	0.250724	0.097713	0.269091	21.292	49.1778	126.186	135.431	-68.708	0.0000000E+000	0.0000000E+000	0.0000000E+000	68.708	0.0000000E+000	0.0000000E+000	0.0000000E+000	-68.708	0.0000000E+000	0.0000000E+000	0.0000000E+000	-21.292	0.0000000E+000	0.0000000E+000	0.0000000E+000	21.292	2.56592	68.708	-1.03864e-05
100004	3.43912	1.02821	3.58953	-16.6453	617.135	0.45969	-0.00398472	1.54783	0.127002	1	38	0.0145756	0.00406057	0	-2.13955e-05	0.489952	0.170335	8.79135	3.92396e-05	1.68913e-05	3.11971e-05	1.92017e-05	2.33928e-05	2.45758e-05	0.0596086	0.0308196	0.710891	1.74324e-06	1.31853e-06	6.58904e-07	2.02089e-07	3.21408e-07	5.11409e-07	0.266914	0.0798006	0.278588	16.6453	127.002	424.791	443.37	-73.3547	0.0000000E+000	0.0000000E+000	0.0000000E+000	73.3547	0.0000000E+000	0.0000000E+000	0.0000000E+000	-73.3547	0.0000000E+000	0.0000000E+000	0.0000000E+000	-16.6453	0.0000000E+000	0.0000000E+000	0.0000000E+000	16.6453	3.34476	73.3547	-3.56522e-06
31621.1	3.62732	2.06028	4.1716	-29.5961	622.871	0.459674	-0.00328651	2.44295	0.595887	1	38	0.0147242	0.00352963	0	-3.57677e-05	0.416104	0.240462	8.96979	1.52758e-05	2.88292e-05	3.05002e-05	2.07174e-05	2.03223e-05	2.77056e-05	0.0636143	0.0459397	0.82024	4.71905e-07	1.51093e-06	1.06928e-06	7.39401e-07	7.62454e-07	3.56646e-07	0.20844	0.118392	0.239716	29.5961	595.887	1049.12	1206.53	-60.4039	0.0000000E+000	0.0000000E+000	0.0000000E+000	60.4039	0.0000000E+000	0.0000000E+000	0.0000000E+000	-60.4039	0.0000000E+000	0.0000000E+000	0.0000000E+000	-29.5961	0.0000000E+000	0.0000000E+000	0.0000000E+000	29.5961	1.76059	60.4039	-2.7241e-06
10002.2	4.2295	5.55229	6.97973	-52.7014	628.607	0.459719	-0.00391218	2.86584	1.81351	1	38	0.0145169	0.00207987	0	-3.36271e-05	0.388228	0.192982	8.88291	1.68521e-05	2.65169e-05	1.49853e-05	2.01135e-05	1.95072e-05	2.64656e-05	0.20044	0.0384818	1.39108	3.75162e-06	7.75341e-07	6.61999e-07	1.15843e-06	4.83306e-07	4.18134e-07	0.0868184	0.113971	0.143272	52.7014	1813.51	1381.45	2279.74	-37.2986	0.0000000E+000	0.0000000E+000	0.0000000E+000	37.2986	0.0000000E+000	0.0000000E+000	0.0000000E+000	-37.2986	0.0000000E+000	0.0000000E+000	0.0000000E+000	-52.7014	0.0000000E+000	0.0000000E+000	0.0000000E+000	52.7014	0.761758	37.2986	5.5657e-07
3163.04	6.32347	15.3878	16.6364	-67.6602	634.167	0.459571	-0.0056494	3.26994	2.79752	1	38	0.0126809	0.000762239	0	-3.87306e-05	0.611216	0.262594	10.284	2.08168e-05	2.84392e-05	3.74833e-05	2.2693e-05	3.86877e-05	2.97807e-05	0.718538	0.194341	3.81887	4.78485e-06	2.23875e-06	4.15257e-07	1.19863e-06	2.24329e-07	4.17946e-07	0.0228474	0.0555978	0.0601092	67.6602	2797.52	1149.62	3024.52	-22.3398	0.0000000E+000	0.0000000E+000	0.0000000E+000	22.3398	0.0000000E+000	0.0000000E+000	0.0000000E+000	-22.3398	0.0000000E+000	0.0000000E+000	0.0000000E+000	-67.6602	0.0000000E+000	0.0000000E+000	0.0000000E+000	67.6602	0.410942	22.3398	-1.22104e-06
999.682	13.3047	41.4727	43.5546	-72.2134	640.174	0.459558	-0.000864263	3.83881	3.48059	1	39	0.0144841	0.00033255	0	-4.45573e-05	0.480006	0.213255	8.69866	2.11091e-05	4.06121e-05	2.83003e-05	2.34625e-05	2.43893e-05	1.4746e-05	1.18246	0.086541	3.91247	3.2635e-06	1.93462e-06	2.44409e-07	8.2224e-07	3.51281e-07	2.53436e-07	0.00701356	0.0218623	0.0229597	72.2134	3480.59	1116.6	3655.31	-17.7866	0.0000000E+000	0.0000000E+000	0.0000000E+000	17.7866	0.0000000E+000	0.0000000E+000	0.0000000E+000	-17.7866	0.0000000E+000	0.0000000E+000	0.0000000E+000	-72.2134	0.0000000E+000	0.0000000E+000	0.0000000E+000	72.2134	0.320807	17.7866	4.96141e-08
316.316	35.1323	107.141	112.754	-71.8453	645.701	0.459622	-0.00045908	4.69616	4.24024	1	39	0.0133196	0.000118129	0	-4.50835e-05	0.457126	0.226959	9.72058	1.4888e-05	2.37051e-05	2.79687e-05	2.41349e-05	2.38986e-05	2.31837e-05	1.04076	0.318093	11.4146	7.63596e-07	5.26285e-07	2.19046e-07	3.27681e-07	5.0187e-07	3.20648e-07	0.00276339	0.00842736	0.00886886	71.8453	4240.24	1390.4	4462.38	-18.1547	0.0000000E+000	0.0000000E+000	0.0000000E+000	18.1547	0.0000000E+000	0.0000000E+000	0.0000000E+000	-18.1547	0.0000000E+000	0.0000000E+000	0.0000000E+000	-71.8453	0.0000000E+000	0.0000000E+000	0.0000000E+000	71.8453	0.327907	18.1547	-1.62815e-07
99.9682	100.336	266.621	284.876	-69.3774	651.462	0.459596	-0.000101369	5.97123	5.23049	1	40	0.0134167	4.70969e-05	0	-4.52637e-05	0.665572	0.4354	14.9011	4.33057e-05	2.52128e-05	3.92978e-05	4.56592e-05	2.09833e-05	1.6159e-05	0.886984	0.158136	5.60871	3.19378e-07	1.95312e-07	5.93525e-08	1.40561e-07	4.29027e-08	3.40748e-08	0.00123637	0.00328537	0.0035103	69.3774	5230.49	1968.36	5588.6	-20.6226	0.0000000E+000	0.0000000E+000	0.0000000E+000	20.6226	0.0000000E+000	0.0000000E+000	0.0000000E+000	-20.6226	0.0000000E+000	0.0000000E+000	0.0000000E+000	-69.3774	0.0000000E+000	0.0000000E+000	0.0000000E+000	69.3774	0.376325	20.6226	-2.62974e-08
31.6296	308.561	618.629	691.311	-63.4908	656.79	0.459578	-5.82114e-05	8.13386	6.51343	1	40	0.0131848	1.90721e-05	0	-4.53335e-05	0.749037	0.543236	14.8787	4.72645e-05	4.70672e-05	3.03623e-05	3.05584e-05	4.43005e-05	1.69178e-05	1.2794	0.499643	13.6304	1.67127e-07	1.08073e-07	6.57309e-08	8.7746e-08	6.07636e-08	2.4001e-08	0.000645644	0.00129444	0.00144653	63.4908	6513.42	3248.78	7278.69	-26.5092	0.0000000E+000	0.0000000E+000	0.0000000E+000	26.5092	0.0000000E+000	0.0000000E+000	0.0000000E+000	-26.5092	0.0000000E+000	0.0000000E+000	0.0000000E+000	-63.4908	0.0000000E+000	0.0000000E+000	0.0000000E+000	63.4908	0.498782	26.5092	-2.19277e-08
9.99682	956.698	1205.15	1538.72	-51.5561	662.49	0.459581	-7.79059e-05	13.2104	8.10364	1	41	0.0131888	8.57125e-06	0	-4.54642e-05	1.0469	0.545488	19.1093	5.49427e-05	4.29383e-05	4.50117e-05	7.20343e-05	5.94606e-05	3.94698e-05	1.03209	0.184869	5.85395	6.55908e-08	4.07374e-08	1.34536e-08	3.74721e-08	1.43461e-08	4.73716e-09	0.000404068	0.000509005	0.00064989	51.5561	8103.64	6432.99	10346.6	-38.4439	0.0000000E+000	0.0000000E+000	0.0000000E+000	38.4439	0.0000000E+000	0.0000000E+000	0.0000000E+000	-38.4439	0.0000000E+000	0.0000000E+000	0.0000000E+000	-51.5561	0.0000000E+000	0.0000000E+000	0.0000000E+000	51.5561	0.793839	38.4439	-5.73613e-08
3.16296	2277.61	1477.47	2714.85	-32.9712	670.932	0.459598	-7.68876e-05	34.0571	10.0868	1	41	0.0131737	4.85245e-06	0	-4.55821e-05	0.471124	0.261873	8.46163	1.59612e-05	2.93749e-05	2.87333e-05	3.21384e-05	1.14116e-05	8.75453e-06	0.798984	0.114715	4.84832	3.3526e-08	1.55732e-08	5.38563e-09	6.92792e-09	3.63824e-09	2.72789e-09	0.00030902	0.00020046	0.000368344	32.9712	10086.8	15549.4	18534.5	-57.0288	0.0000000E+000	0.0000000E+000	0.0000000E+000	57.0288	0.0000000E+000	0.0000000E+000	0.0000000E+000	-57.0288	0.0000000E+000	0.0000000E+000	0.0000000E+000	-32.9712	0.0000000E+000	0.0000000E+000	0.0000000E+000	32.9712	1.54156	57.0288	2.00645e-08
1.00006	3392.19	996.238	3535.46	-16.3668	694.68	0.459598	-8.63094e-05	159.746	12.6843	1	42	0.0131737	3.72617e-06	0	-4.63579e-05	0.262156	0.159104	4.56519	1.3214e-05	8.97443e-06	1.10672e-05	1.52581e-05	1.75062e-05	1.23412e-05	0.727455	0.0447241	1.31703	2.39157e-08	1.20166e-08	6.58361e-10	4.11495e-09	6.21938e-10	5.56222e-10	0.000271387	7.97026e-05	0.000282849	16.3668	12684.3	43190	45014	-73.6332	0.0000000E+000	0.0000000E+000	0.0000000E+000	73.6332	0.0000000E+000	0.0000000E+000	0.0000000E+000	-73.6332	0.0000000E+000	0.0000000E+000	0.0000000E+000	-16.3668	0.0000000E+000	0.0000000E+000	0.0000000E+000	16.3668	3.405	73.6332	-3.27304e-07
0.316193	3870.36	500.955	3902.64	-7.37501	760.476	0.4596	-8.29523e-05	1004.78	16.5558	1	42	0.0131687	3.37429e-06	0	-4.73184e-05	0.148752	0.05352	2.50132	4.84912e-06	1.06135e-05	7.23186e-06	9.68051e-06	5.44917e-06	3.26352e-06	0.736371	0.0364727	1.45394	2.25105e-08	1.01304e-08	2.37215e-10	2.77485e-09	3.293e-10	2.42548e-10	0.000254117	3.28913e-05	0.000256237	7.37501	16555.8	127909	128976	-82.625	0.0000000E+000	0.0000000E+000	0.0000000E+000	82.625	0.0000000E+000	0.0000000E+000	0.0000000E+000	-82.625	0.0000000E+000	0.0000000E+000	0.0000000E+000	-7.37501	0.0000000E+000	0.0000000E+000	0.0000000E+000	7.37501	7.72595	82.625	-1.75185e-07
0.0999518	4078.5	221.19	4084.49	-3.10429	965.058	0.459584	-8.3145e-05	7198.88	21.1115	1	42	0.0131732	3.22517e-06	0	-5.15532e-05	0.11125	0.0677342	1.46942	3.39305e-06	1.05429e-05	4.43112e-06	6.04629e-06	3.85284e-06	3.10147e-06	0.77158	0.0376047	1.41874	2.28966e-08	9.33667e-09	3.36198e-10	2.75798e-09	1.18679e-10	1.57941e-10	0.000244469	1.32583e-05	0.000244829	3.10429	21111.5	389273	389845	-86.8957	0.0000000E+000	0.0000000E+000	0.0000000E+000	86.8957	0.0000000E+000	0.0000000E+000	0.0000000E+000	-86.8957	0.0000000E+000	0.0000000E+000	0.0000000E+000	-3.10429	0.0000000E+000	0.0000000E+000	0.0000000E+000	3.10429	18.4389	86.8957	-2.61335e-07