File: Python/Data/RDE/240223-OCV-EIS-Fe2Fe3_5mM-HCl1M-2000RPM-Ag_AgCl_BLF8-GC-RDE-AllPreviousVariations_09_OCV_C15.mpt
EC-Lab ASCII FILE
Nb header lines : 47

Open Circuit Voltage

Run on channel : 15 (SN 19485)
User :
Electrode connection : standard
Potential control : Ewe
Ewe ctrl range : min = -1.00 V, max = 1.00 V
Ewe,I filtering : 50 kHz
Safety Limits :
	Do not start on E overload
Channel : Floating
Acquisition started on : 02/23/2024 12:36:41.987
Loaded Setting File :  C:\Data\mathias\RDE-RPM-variation\240222-CV-EIS-Fe2Fe3_5mM-HCl1M-0RPM-Ag_AgCl_BLF8-GC-RDE-DefaultSettings.mps
Saved on :
	File : 240223-OCV-EIS-Fe2Fe3_5mM-HCl1M-2000RPM-Ag_AgCl_BLF8-GC-RDE-AllPreviousVariations_09_OCV_C15.mpr
	Directory : C:\Data\mathias\RDE-RPM-variation\
	Host : 192.168.0.1
Device : VMP-300 (SN 0826)
Address : USB
EC-Lab for windows v11.52 (software)
Internet server v11.52 (firmware)
Command interpretor v11.52 (firmware)
Electrode material :
Initial state :
Electrolyte :
Comments :
Cable : special
Reference electrode : SCE Saturated Calomel Electrode (0.241 V)
Electrode surface area : 0.001 cm²
Characteristic mass : 0.001 g
Equivalent Weight : 0.000 g/eq.
Density : 0.000 g/cm3
Volume (V) : 0.001 cm³
Record EIS quality indicators
Cycle Definition : Charge/Discharge alternance
tR (h:m:s)          0:01:0.0000
dER/dt (mV/h)       1.0
record              <Ewe>
dER (mV)            0.00
dtR (s)             0.5000
E range min (V)     -1.000
E range max (V)     1.000

mode	error	time/s	<Ewe/V>
3	0	4858.13	0.403783
3	0	4858.63	0.44196
3	0	4859.13	0.450076
3	0	4859.63	0.453189
3	0	4860.13	0.454844
3	0	4860.63	0.45586
3	0	4861.13	0.456541
3	0	4861.63	0.45703
3	0	4862.13	0.457393
3	0	4862.63	0.45767
3	0	4863.13	0.457892
3	0	4863.63	0.458067
3	0	4864.13	0.458213
3	0	4864.63	0.458337
3	0	4865.13	0.458442
3	0	4865.63	0.458536
3	0	4866.13	0.458616
3	0	4866.63	0.458685
3	0	4867.13	0.458746
3	0	4867.63	0.458801
3	0	4868.13	0.458854
3	0	4868.63	0.458898
3	0	4869.13	0.458936
3	0	4869.63	0.458975
3	0	4870.13	0.459011
3	0	4870.63	0.459043
3	0	4871.13	0.45907
3	0	4871.63	0.459095
3	0	4872.13	0.459122
3	0	4872.63	0.459144
3	0	4873.13	0.459166
3	0	4873.63	0.459186
3	0	4874.13	0.459204
3	0	4874.63	0.459221
3	0	4875.13	0.459236
3	0	4875.63	0.459251
3	0	4876.13	0.459266
3	0	4876.63	0.459281
3	0	4877.13	0.459293
3	0	4877.63	0.459305
3	0	4878.13	0.459318
3	0	4878.63	0.459329
3	0	4879.13	0.459339
3	0	4879.63	0.45935
3	0	4880.13	0.459358
3	0	4880.63	0.459366
3	0	4881.13	0.459377
3	0	4881.63	0.459384
3	0	4882.13	0.459394
3	0	4882.63	0.459399
3	0	4883.13	0.459406
3	0	4883.63	0.459411
3	0	4884.13	0.459418
3	0	4884.63	0.459426
3	0	4885.13	0.459434
3	0	4885.63	0.459438
3	0	4886.13	0.459442
3	0	4886.63	0.459449
3	0	4887.13	0.459455
3	0	4887.63	0.459459
3	0	4888.13	0.459465
3	0	4888.63	0.459469
3	0	4889.13	0.459475
3	0	4889.63	0.459478
3	0	4890.13	0.459483
3	0	4890.63	0.459492
3	0	4891.13	0.459495
3	0	4891.63	0.459501
3	0	4892.13	0.459505
3	0	4892.63	0.459507
3	0	4893.13	0.459511
3	0	4893.63	0.459516
3	0	4894.13	0.459521
3	0	4894.63	0.459524
3	0	4895.13	0.459529
3	0	4895.63	0.45953
3	0	4896.13	0.459534
3	0	4896.63	0.459536
3	0	4897.13	0.459539
3	0	4897.63	0.459539
3	0	4898.13	0.459543
3	0	4898.63	0.459548
3	0	4899.13	0.459551
3	0	4899.63	0.459554
3	0	4900.13	0.459555
3	0	4900.63	0.459557
3	0	4901.13	0.459559
3	0	4901.63	0.45956
3	0	4902.13	0.459567
3	0	4902.63	0.459571
3	0	4903.13	0.459574
3	0	4903.63	0.459576
3	0	4904.13	0.459572
3	0	4904.63	0.459574
3	0	4905.13	0.459577
3	0	4905.63	0.459581
3	0	4906.13	0.459584
3	0	4906.63	0.459587
3	0	4907.13	0.459587
3	0	4907.63	0.459594
3	0	4908.13	0.459597
3	0	4908.63	0.459595
3	0	4909.13	0.459597
3	0	4909.63	0.459595
3	0	4910.13	0.459599
3	0	4910.63	0.459599
3	0	4911.13	0.459601
3	0	4911.63	0.4596
3	0	4912.13	0.459603
3	0	4912.63	0.459604
3	0	4913.13	0.459605
3	0	4913.63	0.459607
3	0	4914.13	0.459611
3	0	4914.63	0.45961
3	0	4915.13	0.459611
3	0	4915.63	0.459615
3	0	4916.13	0.459619
3	0	4916.63	0.459619
3	0	4917.13	0.459619
3	0	4917.63	0.459619
3	0	4917.79	0.459621