File: Python/Data/RDE/240223-OCV-EIS-Fe2Fe3_5mM-HCl1M-2000RPM-Ag_AgCl_BLF8-GC-RDE-1minRestVSEoc-3ppf-14p1mVAmplitude_02_PEIS_C15.mpt
EC-Lab ASCII FILE
Nb header lines : 67

Potentio Electrochemical Impedance Spectroscopy

Run on channel : 15 (SN 19485)
User :
Electrode connection : standard
Potential control : Ewe
Ewe ctrl range : min = -1.00 V, max = 1.00 V
Ewe,I filtering : 50 kHz
Safety Limits :
	Do not start on E overload
Channel : Floating
Acquisition started on : 02/23/2024 14:14:06.635
Loaded Setting File :  NONE
Saved on :
	File : 240223-OCV-EIS-Fe2Fe3_5mM-HCl1M-2000RPM-Ag_AgCl_BLF8-GC-RDE-1minRestVSEoc-3ppf-14p1mVAmplitude_02_PEIS_C15.mpr
	Directory : C:\Data\mathias\RDE-RPM-variation\
	Host : 192.168.0.1
Device : VMP-300 (SN 0826)
Address : USB
EC-Lab for windows v11.52 (software)
Internet server v11.52 (firmware)
Command interpretor v11.52 (firmware)
Electrode material :
Initial state :
Electrolyte :
Comments :
Cable : special
Reference electrode : SCE Saturated Calomel Electrode (0.241 V)
Electrode surface area : 0.001 cm²
Characteristic mass : 0.001 g
Equivalent Weight : 0.000 g/eq.
Density : 0.000 g/cm3
Volume (V) : 0.001 cm³
Record EIS quality indicators
Cycle Definition : Charge/Discharge alternance
Mode                Single sine
E (V)               0.0000
vs.                 Eoc
tE (h:m:s)          0:01:0.0000
record              0
dI                  0.000
unit dI             mA
dt (s)              0.000
fi                  1.000
unit fi             MHz
ff                  100.000
unit ff             mHz
Nd                  10
Points              per decade
spacing             Logarithmic
Va (mV)             14.1
pw                  0.10
Na                  3
corr                0
E range min (V)     -1.000
E range max (V)     1.000
I Range             Auto
Bandwidth           8
nc cycles           0
goto Ns'            0
nr cycles           0
inc. cycle          1

freq/Hz	Re(Z)/Ohm	-Im(Z)/Ohm	|Z|/Ohm	Phase(Z)/deg	time/s	<Ewe>/V	<I>/mA	Cs/µF	Cp/µF	cycle number	I Range	|Ewe|/V	|I|/A	Ns	(Q-Qo)/mA.h	THD Ewe/%	NSD Ewe/%	NSR Ewe/%	|Ewe h2|/V	|Ewe h3|/V	|Ewe h4|/V	|Ewe h5|/V	|Ewe h6|/V	|Ewe h7|/V	THD I/%	NSD I/%	NSR I/%	|I h2|/A	|I h3|/A	|I h4|/A	|I h5|/A	|I h6|/A	|I h7|/A	Re(Y)/Ohm-1	Im(Y)/Ohm-1	|Y|/Ohm-1	Phase(Y)/deg	Re(C)/nF	Im(C)/nF	|C|/nF	Phase(C)/deg	Re(M)	Im(M)	|M|	Phase(M)/deg	Re(Permittivity)	Im(Permittivity)	|Permittivity|	Phase(Permittivity)/deg	Re(Resistivity)/Ohm.cm	Im(Resistivity)/Ohm.cm	|Resistivity|/Ohm.cm	Phase(Resistivity)/deg	Re(Conductivity)/mS/cm	Im(Conductivity)/mS/cm	|Conductivity|/mS/cm	Phase(Conductivity)/deg	Tan(Delta)	Loss Angle(Delta)/deg	dq/mA.h
1.00002e+06	3.55759	4.09025	5.42094	-48.9841	123.186	0.459642	-0.0126447	0.0389101	0.022152	1	38	0.011166	0.0020598	0	-4.555e-06	-1	-1	-1	0	0	0	0	0	0	-1	-1	-1	0	0	0	0	0	0	0.121062	0.139188	0.18447	48.9841	22.152	19.2672	29.3587	-41.0159	0.0000000E+000	0.0000000E+000	0.0000000E+000	41.0159	0.0000000E+000	0.0000000E+000	0.0000000E+000	-41.0159	0.0000000E+000	0.0000000E+000	0.0000000E+000	-48.9841	0.0000000E+000	0.0000000E+000	0.0000000E+000	48.9841	0.869773	41.0159	-4.555e-06
316230	3.45988	1.33967	3.71019	-21.1664	128.785	0.459631	-0.00399032	0.375681	0.0489805	1	38	0.0145712	0.00392735	0	-8.66951e-06	-1	-1	-1	0	0	0	0	0	0	-1	-1	-1	0	0	0	0	0	0	0.251345	0.0973208	0.269528	21.1664	48.9805	126.499	135.65	-68.8336	0.0000000E+000	0.0000000E+000	0.0000000E+000	68.8336	0.0000000E+000	0.0000000E+000	0.0000000E+000	-68.8336	0.0000000E+000	0.0000000E+000	0.0000000E+000	-21.1664	0.0000000E+000	0.0000000E+000	0.0000000E+000	21.1664	2.58264	68.8336	-2.16153e-06
100004	3.43686	1.01208	3.58278	-16.4086	134.521	0.459623	-0.00277819	1.57249	0.125482	1	38	0.0145751	0.00406809	0	-1.18902e-05	0.470286	0.254949	8.84853	2.04916e-05	4.0747e-05	1.67902e-05	2.57594e-05	2.56891e-05	2.30153e-05	0.0627321	0.0277361	0.713741	1.69739e-06	1.33329e-06	4.02505e-07	2.63442e-07	6.96388e-07	6.55363e-07	0.267745	0.0788455	0.279113	16.4086	125.482	426.114	444.206	-73.5914	0.0000000E+000	0.0000000E+000	0.0000000E+000	73.5914	0.0000000E+000	0.0000000E+000	0.0000000E+000	-73.5914	0.0000000E+000	0.0000000E+000	0.0000000E+000	-16.4086	0.0000000E+000	0.0000000E+000	0.0000000E+000	16.4086	3.39582	73.5914	2.21823e-06
31621.1	3.62183	2.00552	4.14001	-28.9747	140.256	0.459632	-0.00355277	2.50967	0.588932	1	38	0.0146396	0.00353611	0	-1.41311e-05	0.4574	0.27836	8.94607	2.97891e-05	1.64014e-05	4.27983e-05	1.747e-05	2.20241e-05	2.15853e-05	0.0635637	0.0549713	0.807358	1.04126e-06	1.00203e-06	1.04421e-06	7.13846e-07	4.90759e-07	5.44651e-07	0.211312	0.11701	0.241545	28.9747	588.932	1063.57	1215.74	-61.0253	0.0000000E+000	0.0000000E+000	0.0000000E+000	61.0253	0.0000000E+000	0.0000000E+000	0.0000000E+000	-61.0253	0.0000000E+000	0.0000000E+000	0.0000000E+000	-28.9747	0.0000000E+000	0.0000000E+000	0.0000000E+000	28.9747	1.80593	61.0253	5.06506e-06
10002.2	4.21904	5.40401	6.85592	-52.0199	145.991	0.459622	-0.00221595	2.94447	1.8294	1	38	0.0145864	0.00212756	0	-1.40081e-05	0.395969	0.205114	8.76492	2.2396e-05	2.41813e-05	2.43409e-05	1.87569e-05	1.912e-05	2.36268e-05	0.17803	0.0489169	1.38379	3.39772e-06	1.00312e-06	6.64688e-07	7.1708e-07	2.77617e-07	6.10706e-07	0.08976	0.11497	0.145859	52.0199	1829.4	1428.26	2320.91	-37.9801	0.0000000E+000	0.0000000E+000	0.0000000E+000	37.9801	0.0000000E+000	0.0000000E+000	0.0000000E+000	-37.9801	0.0000000E+000	0.0000000E+000	0.0000000E+000	-52.0199	0.0000000E+000	0.0000000E+000	0.0000000E+000	52.0199	0.780725	37.9801	-1.45846e-06
3163.04	6.24968	14.976	16.2277	-67.3486	151.553	0.459473	-0.00403883	3.35985	2.86151	1	38	0.0128892	0.000794269	0	-1.94762e-05	0.493999	0.284993	9.98621	2.51743e-05	1.37295e-05	1.98165e-05	3.32079e-05	2.19643e-05	3.01171e-05	0.599819	0.0730315	3.64506	4.07153e-06	1.88561e-06	4.25945e-07	8.19643e-07	9.66189e-07	4.92878e-07	0.0237325	0.0568696	0.0616229	67.3486	2861.51	1194.15	3100.69	-22.6514	0.0000000E+000	0.0000000E+000	0.0000000E+000	22.6514	0.0000000E+000	0.0000000E+000	0.0000000E+000	-22.6514	0.0000000E+000	0.0000000E+000	0.0000000E+000	-67.3486	0.0000000E+000	0.0000000E+000	0.0000000E+000	67.3486	0.417313	22.6514	-1.31347e-06
999.682	13.1537	40.1919	42.2895	-71.8782	157.559	0.459473	-0.000417697	3.96114	3.57792	1	39	0.0143463	0.000339239	0	-2.35821e-05	0.538178	0.20554	8.83214	2.77233e-05	3.32959e-05	3.17945e-05	3.17388e-05	2.77991e-05	2.26328e-05	1.09909	0.121461	3.88676	2.84937e-06	2.09853e-06	3.18326e-07	9.96504e-07	3.13619e-07	2.99142e-07	0.00735497	0.0224736	0.0236465	71.8782	3577.92	1170.95	3764.66	-18.1218	0.0000000E+000	0.0000000E+000	0.0000000E+000	18.1218	0.0000000E+000	0.0000000E+000	0.0000000E+000	-18.1218	0.0000000E+000	0.0000000E+000	0.0000000E+000	-71.8782	0.0000000E+000	0.0000000E+000	0.0000000E+000	71.8782	0.327272	18.1218	-3.28845e-07
316.316	34.37	103.69	109.238	-71.6612	163.087	0.45953	-0.000155468	4.85247	4.3721	1	39	0.0131816	0.000120669	0	-2.39629e-05	0.606355	0.329982	9.47967	2.7571e-05	2.9088e-05	3.71011e-05	3.36157e-05	2.51017e-05	2.41213e-05	0.991613	0.366661	10.5407	7.98285e-07	3.80209e-07	1.79681e-07	6.32286e-07	1.23683e-07	3.35853e-07	0.00288028	0.00868943	0.00915435	71.6612	4372.1	1449.22	4606.03	-18.3388	0.0000000E+000	0.0000000E+000	0.0000000E+000	18.3388	0.0000000E+000	0.0000000E+000	0.0000000E+000	-18.3388	0.0000000E+000	0.0000000E+000	0.0000000E+000	-71.6612	0.0000000E+000	0.0000000E+000	0.0000000E+000	71.6612	0.331469	18.3388	-1.36669e-07
99.9682	97.706	257.4	275.32	-69.2138	168.849	0.459531	-0.000139647	6.18514	5.40618	1	40	0.0132486	4.81206e-05	0	-2.44159e-05	0.698566	0.53185	15.3041	3.22819e-05	2.87881e-05	4.9893e-05	3.91711e-05	2.73237e-05	1.71681e-05	0.907769	0.168278	5.54524	3.42486e-07	1.49478e-07	6.88096e-08	1.89811e-07	5.74478e-08	4.33894e-08	0.00128897	0.00339572	0.00363213	69.2138	5406.18	2052.12	5782.56	-20.7862	0.0000000E+000	0.0000000E+000	0.0000000E+000	20.7862	0.0000000E+000	0.0000000E+000	0.0000000E+000	-20.7862	0.0000000E+000	0.0000000E+000	0.0000000E+000	-69.2138	0.0000000E+000	0.0000000E+000	0.0000000E+000	69.2138	0.379588	20.7862	-1.15588e-07
31.6296	296.752	600.41	669.741	-63.6992	174.18	0.459535	-6.81581e-05	8.38067	6.73535	1	40	0.0130659	1.95089e-05	0	-2.45533e-05	1.0269	0.544825	15.4782	4.67645e-05	5.19329e-05	5.40224e-05	2.57902e-05	8.19218e-05	3.99015e-05	1.11877	0.462319	13.7045	1.44065e-07	7.28536e-08	3.88226e-08	7.36526e-08	8.57221e-08	5.71037e-08	0.000661574	0.00133855	0.00149311	63.6992	6735.35	3328.94	7513.11	-26.3008	0.0000000E+000	0.0000000E+000	0.0000000E+000	26.3008	0.0000000E+000	0.0000000E+000	0.0000000E+000	-26.3008	0.0000000E+000	0.0000000E+000	0.0000000E+000	-63.6992	0.0000000E+000	0.0000000E+000	0.0000000E+000	63.6992	0.494248	26.3008	-4.95912e-08
9.99682	925.898	1167.22	1489.86	-51.5767	179.881	0.459553	-9.46979e-05	13.6398	8.37181	1	41	0.0130424	8.7541e-06	0	-2.47254e-05	1.41184	0.630513	19.3543	4.30317e-05	8.88005e-05	8.11449e-05	4.42037e-05	6.11155e-05	8.62276e-05	0.779213	0.206738	5.66331	5.21237e-08	3.09733e-08	1.55385e-08	1.55036e-08	1.14173e-08	1.62336e-08	0.000417131	0.000525849	0.000671204	51.5767	8371.81	6640.96	10686	-38.4233	0.0000000E+000	0.0000000E+000	0.0000000E+000	38.4233	0.0000000E+000	0.0000000E+000	0.0000000E+000	-38.4233	0.0000000E+000	0.0000000E+000	0.0000000E+000	-51.5767	0.0000000E+000	0.0000000E+000	0.0000000E+000	51.5767	0.793253	38.4233	-9.14205e-08
3.16296	2207.88	1436.25	2633.92	-33.0445	188.323	0.459565	-9.82556e-05	35.0345	10.4172	1	41	0.0130249	4.94507e-06	0	-2.48755e-05	0.517994	0.282623	8.52098	2.61601e-05	2.51434e-05	2.65725e-05	2.19266e-05	1.92612e-05	3.46795e-05	0.789948	0.146394	4.81075	3.12018e-08	1.71928e-08	6.05582e-09	1.03853e-08	4.7119e-09	8.10842e-09	0.000318251	0.000207026	0.000379662	33.0445	10417.2	16013.9	19104	-56.9555	0.0000000E+000	0.0000000E+000	0.0000000E+000	56.9555	0.0000000E+000	0.0000000E+000	0.0000000E+000	-56.9555	0.0000000E+000	0.0000000E+000	0.0000000E+000	-33.0445	0.0000000E+000	0.0000000E+000	0.0000000E+000	33.0445	1.53725	56.9555	4.25459e-08
1.00006	3295.5	974.629	3436.6	-16.4754	212.071	0.459536	-0.000100711	163.288	13.1333	1	42	0.0130151	3.78719e-06	0	-2.57925e-05	0.286277	0.168257	4.69358	1.75405e-05	2.00425e-05	5.15752e-06	1.02076e-05	1.31137e-05	1.70291e-05	0.680543	0.0391484	1.28591	2.25975e-08	1.14446e-08	3.02449e-10	4.58223e-09	6.60474e-10	6.52094e-10	0.000279038	8.25243e-05	0.000290986	16.4754	13133.3	44407.6	46308.9	-73.5246	0.0000000E+000	0.0000000E+000	0.0000000E+000	73.5246	0.0000000E+000	0.0000000E+000	0.0000000E+000	-73.5246	0.0000000E+000	0.0000000E+000	0.0000000E+000	-16.4754	0.0000000E+000	0.0000000E+000	0.0000000E+000	16.4754	3.38128	73.5246	-4.84663e-07
0.316193	3769.45	488.398	3800.96	-7.38254	277.867	0.459541	-9.84143e-05	1030.61	17.0159	1	42	0.0130162	3.42446e-06	0	-2.69576e-05	0.155345	0.0990099	2.54988	1.02673e-05	9.03192e-06	6.16678e-06	8.56936e-06	6.6065e-06	5.227e-06	0.703541	0.0291734	1.42332	2.16524e-08	1.00628e-08	2.91649e-10	3.14795e-09	3.0844e-10	2.72294e-10	0.000260911	3.38055e-05	0.000263092	7.38254	17015.9	131329	132427	-82.6175	0.0000000E+000	0.0000000E+000	0.0000000E+000	82.6175	0.0000000E+000	0.0000000E+000	0.0000000E+000	-82.6175	0.0000000E+000	0.0000000E+000	0.0000000E+000	-7.38254	0.0000000E+000	0.0000000E+000	0.0000000E+000	7.38254	7.71799	82.6175	-2.77071e-08
0.0999518	3980.39	216.317	3986.27	-3.11071	482.45	0.459558	-9.54758e-05	7361.05	21.6764	1	42	0.0130158	3.26516e-06	0	-3.29468e-05	0.122594	0.0948734	1.50616	6.02933e-06	1.0203e-05	5.03494e-06	7.26519e-06	2.96727e-06	3.82021e-06	0.74622	0.0560852	1.37953	2.22641e-08	9.55898e-09	4.27814e-10	2.48289e-09	2.03623e-10	2.0111e-10	0.000250492	1.36131e-05	0.000250861	3.11071	21676.4	398862	399451	-86.8893	0.0000000E+000	0.0000000E+000	0.0000000E+000	86.8893	0.0000000E+000	0.0000000E+000	0.0000000E+000	-86.8893	0.0000000E+000	0.0000000E+000	0.0000000E+000	-3.11071	0.0000000E+000	0.0000000E+000	0.0000000E+000	3.11071	18.4008	86.8893	-7.35032e-07