File: Python/Data/RDE/240219-CV-EIS-Fe2Fe3_5mM-HCl1M-0RPM-Ag_AgCl_BLF8-GC-RDE_01_CV_C15.mpt
EC-Lab ASCII FILE
Nb header lines : 60

Cyclic Voltammetry

Run on channel : 15 (SN 19485)
User :
Electrode connection : standard
Potential control : Ewe
Ewe ctrl range : min = -1.00 V, max = 1.00 V
Ewe,I filtering : <None>
Safety Limits :
	Do not start on E overload
Channel : Floating
Acquisition started on : 02/19/2024 14:54:22.739
Loaded Setting File :  NONE
Saved on :
	File : 240219-CV-EIS-Fe2Fe3_5mM-HCl1M-0RPM-Ag_AgCl_BLF8-GC-RDE_01_CV_C15.mpr
	Directory : C:\Data\mathias\RDE-RPM-variation\
	Host : 192.168.0.1
Device : VMP-300 (SN 0826)
Address : USB
EC-Lab for windows v11.52 (software)
Internet server v11.52 (firmware)
Command interpretor v11.52 (firmware)
Electrode material :
Initial state :
Electrolyte :
Comments :
Cable : special
Electrode surface area : 0.001 cm²
Characteristic mass : 0.001 g
Equivalent Weight : 0.000 g/eq.
Density : 0.000 g/cm3
Volume (V) : 0.001 cm³
Record EIS quality indicators
Cycle Definition : Charge/Discharge alternance
Ei (V)              0.000
vs.                 Eoc
dE/dt               20.000
dE/dt unit          mV/s
E1 (V)              1.000
vs.                 Ref
Step percent        50
N                   10
E range min (V)     -1.000
E range max (V)     1.000
I Range             Auto
I Range min         Unset
I Range max         Unset
I Range init        Unset
Bandwidth           8
E2 (V)              0.000
vs.                 Ref
nc cycles           2
Reverse Scan        1
Ef (V)              0.000
vs.                 Eoc

mode	ox/red	error	control changes	counter inc.	time/s	control/V	Ewe/V	<I>/mA	cycle number	(Q-Qo)/C	I Range	step time/s	P/W
2	1	0	0	0	0.000000000000000E+000	0.469087	0.468954	0.000544034	1	0.0000000E+000	43	0.000000000000000E+000	2.55127e-07
2	1	0	1	0	2.5476	0.520037	0.520228	0.0123053	1	1.62396e-05	41	2.5338	6.40155e-06
2	1	0	1	0	5.0464	0.570014	0.569963	0.0278514	1	6.55479e-05	41	5.0326	1.58743e-05
2	1	0	1	0	7.5452	0.61999	0.620115	0.0472104	1	0.000159556	41	7.5314	2.92759e-05
2	1	0	1	0	10.044	0.669966	0.670079	0.059734	1	0.000296238	41	10.0302	4.00265e-05
2	1	0	1	0	12.5428	0.71994	0.720036	0.0594351	1	0.000447528	41	12.529	4.27954e-05
2	1	0	1	0	15.0417	0.769919	0.769791	0.0535358	1	0.000589475	41	15.0279	4.12114e-05
2	1	0	1	0	17.5405	0.819895	0.819727	0.0474	1	0.000715714	41	17.5267	3.8855e-05
2	1	0	1	0	20.0393	0.869871	0.869905	0.0427116	1	0.000828293	41	20.0255	3.7155e-05
2	1	0	1	0	22.5381	0.919847	0.919747	0.0394956	1	0.000931056	41	22.5243	3.6326e-05
2	1	0	1	0	25.0369	0.969823	0.970294	0.0373543	1	0.00102718	41	25.0231	3.62446e-05
2	1	0	1	0	27.5086	0.980718	0.980692	0.0344842	1	0.00111692	41	27.4948	3.38183e-05
2	1	0	1	0	30.0074	0.930744	0.930705	0.0321724	1	0.00119958	41	29.9936	2.99431e-05
2	1	0	1	0	32.5063	0.880766	0.880882	0.030463	1	0.00127737	41	32.4925	2.68343e-05
2	1	0	1	0	35.0051	0.83079	0.830568	0.0287054	1	0.00135084	41	34.9913	2.38418e-05
2	1	0	1	0	37.5039	0.780813	0.780671	0.026505	1	0.00141943	41	37.4901	2.06917e-05
2	1	0	1	0	40.0027	0.730837	0.730862	0.0234837	1	0.00148158	41	39.9889	1.71634e-05
2	1	0	1	0	42.5015	0.680861	0.680975	0.0195419	1	0.00153515	41	42.4877	1.33075e-05
2	1	0	1	0	45.0003	0.630885	0.63087	0.0142819	1	0.00157723	41	44.9865	9.01004e-06
2	1	0	1	0	47.4991	0.580908	0.580994	0.00848733	1	0.00160524	41	47.4853	4.93109e-06
2	1	0	1	0	50.0279	0.530332	0.530425	0.00258253	1	0.00161908	42	50.0141	1.36984e-06
2	0	0	1	0	52.5867	0.479157	0.479337	-0.00447307	1	0.0016172	42	1.4793	-2.1441e-06
2	0	0	1	0	55.1155	0.428581	0.428719	-0.0156899	1	0.00159296	41	4.0081	-6.72656e-06
2	0	0	1	0	57.6143	0.378605	0.378728	-0.035079	1	0.00153144	41	6.5069	-1.32854e-05
2	0	0	1	0	60.1131	0.328628	0.328645	-0.0630256	1	0.00140971	41	9.0057	-2.0713e-05
2	0	0	1	0	62.612	0.278652	0.27899	-0.0863628	1	0.00121963	41	11.5046	-2.40943e-05
2	0	0	1	0	65.1108	0.228676	0.228667	-0.0883514	1	0.000996473	41	14.0034	-2.0203e-05
2	0	0	1	0	67.6096	0.1787	0.178983	-0.075947	1	0.000789886	41	16.5022	-1.35932e-05
2	0	0	1	0	70.1084	0.128723	0.129013	-0.0632684	1	0.000616423	41	19.001	-8.16244e-06
2	0	0	1	0	72.6072	0.0787472	0.079069	-0.0540402	1	0.000470375	41	21.4998	-4.27291e-06
2	0	0	1	0	75.106	0.028771	0.0290809	-0.0476057	1	0.000343689	41	23.9986	-1.38442e-06
2	0	0	1	1	77.5829	0.0207748	0.0210829	-0.0411008	1	0.000233144	41	26.4755	-8.66524e-07
2	0	0	1	1	80.0817	0.070751	0.0709012	-0.0364731	1	0.00013679	41	28.9743	-2.58599e-06
2	0	0	1	1	82.5805	0.120727	0.1208	-0.0326828	1	5.06822e-05	41	31.4731	-3.94809e-06
2	0	0	1	1	85.0793	0.170703	0.171036	-0.0288667	1	-2.60823e-05	41	33.9719	-4.93723e-06
2	0	0	1	1	87.5781	0.22068	0.221	-0.0243602	1	-9.26037e-05	41	36.4707	-5.38361e-06
2	0	0	1	1	90.0769	0.270656	0.271092	-0.0187578	1	-0.000146534	41	38.9695	-5.08509e-06
2	0	0	1	1	92.5758	0.320634	0.32095	-0.0124168	1	-0.000185414	41	41.4684	-3.98518e-06
2	0	0	1	1	95.0746	0.370608	0.370873	-0.00604405	1	-0.000208301	41	43.9672	-2.24157e-06
2	1	0	1	1	97.6333	0.421784	0.421991	0.000770155	1	-0.00021517	43	0.2498	3.24999e-07
2	1	0	1	1	100.13	0.47171	0.471919	0.00973395	2	-0.000202897	42	2.7462	4.59363e-06
2	1	0	1	1	102.658	0.522284	0.522739	0.0247959	2	-0.000160761	41	5.2749	1.29618e-05
2	1	0	1	1	105.157	0.572262	0.572488	0.0482319	2	-7.0983e-05	41	7.7738	2.76122e-05
2	1	0	1	1	107.656	0.622239	0.622209	0.0748257	2	8.39274e-05	41	10.2726	4.65572e-05
2	1	0	1	1	110.155	0.672215	0.672436	0.0870253	2	0.000291058	41	12.7714	5.85189e-05
2	1	0	1	1	112.654	0.722191	0.722221	0.080861	2	0.000503556	41	15.2702	5.83995e-05
2	1	0	1	1	115.152	0.772168	0.772197	0.0692452	2	0.000691471	41	17.769	5.3471e-05
2	1	0	1	1	117.651	0.822144	0.822258	0.0590201	2	0.000851428	41	20.2678	4.85297e-05
2	1	0	1	1	120.15	0.87212	0.872173	0.0515663	2	0.000989333	41	22.7666	4.49747e-05
2	1	0	1	1	122.649	0.922097	0.922169	0.0463719	2	0.0011116	41	25.2655	4.27627e-05
2	1	0	1	1	125.148	0.972072	0.972167	0.042756	2	0.00122295	41	27.7643	4.1566e-05
2	1	0	1	1	127.607	0.978719	0.978778	0.0386248	2	0.00132382	41	30.2235	3.78051e-05
2	1	0	1	1	130.106	0.928743	0.928662	0.0354603	2	0.00141569	41	32.7223	3.29306e-05
2	1	0	1	1	132.605	0.878767	0.878898	0.0330859	2	0.00150082	41	35.2211	2.90791e-05
2	1	0	1	1	135.103	0.828791	0.828816	0.0307605	2	0.00158011	41	37.7199	2.54948e-05
2	1	0	1	1	137.602	0.778814	0.778904	0.0280338	2	0.0016532	41	40.2187	2.18356e-05
2	1	0	1	1	140.101	0.72884	0.728898	0.0246481	2	0.00171874	41	42.7175	1.79659e-05
2	1	0	1	1	142.6	0.678862	0.679017	0.0202893	2	0.00177474	41	45.2164	1.37768e-05
2	1	0	1	1	145.099	0.628886	0.629074	0.0147266	2	0.00181836	41	47.7152	9.26413e-06
2	1	0	1	1	147.597	0.578909	0.578791	0.00866601	2	0.00184718	41	50.214	5.01581e-06
2	1	0	1	1	150.126	0.528333	0.528469	0.00255121	2	0.00186123	42	52.7428	1.34823e-06
2	0	0	1	1	152.685	0.477158	0.477238	-0.00479305	2	0.00185892	42	1.5293	-2.28742e-06
2	0	0	1	1	155.214	0.426582	0.426843	-0.0163967	2	0.0018334	41	4.0581	-6.99883e-06
2	0	0	1	1	157.713	0.376606	0.376658	-0.0362055	2	0.00176954	41	6.5569	-1.36371e-05
2	0	0	1	1	160.211	0.326629	0.326851	-0.0641253	2	0.00164484	41	9.0557	-2.09594e-05
2	0	0	1	1	162.71	0.276653	0.276836	-0.0862967	2	0.00145331	41	11.5545	-2.38901e-05
2	0	0	1	1	165.209	0.226677	0.226851	-0.0869879	2	0.00123214	41	14.0533	-1.97333e-05
2	0	0	1	1	167.708	0.176701	0.177038	-0.0744396	2	0.00102931	41	16.5521	-1.31786e-05
2	0	0	1	1	170.207	0.126724	0.126941	-0.0620965	2	0.000859201	41	19.0509	-7.88259e-06
2	0	0	1	1	172.706	0.0767477	0.0768017	-0.0531846	2	0.000715626	41	21.5498	-4.08467e-06
2	0	0	1	1	175.204	0.0267719	0.0268183	-0.0469486	2	0.000590781	41	24.0486	-1.25908e-06
2	0	0	1	0	177.681	0.0227738	0.0231692	-0.04057	2	0.000481838	41	26.5254	-9.39974e-07
2	0	0	1	0	180.18	0.0727501	0.0731628	-0.0360598	2	0.000386606	41	29.0242	-2.63823e-06
2	0	0	1	0	182.679	0.122725	0.123008	-0.032384	2	0.000301322	41	31.523	-3.98349e-06
2	0	0	1	0	185.178	0.172703	0.172827	-0.028608	2	0.0002252	41	34.0219	-4.94424e-06
2	0	0	1	0	187.676	0.222679	0.222885	-0.0240937	2	0.000159308	41	36.5207	-5.37013e-06
2	0	0	1	0	190.175	0.272655	0.27263	-0.0184645	2	0.00010606	41	39.0195	-5.03399e-06
2	0	0	1	0	192.674	0.322631	0.322866	-0.0121774	2	6.78506e-05	41	41.5183	-3.93166e-06
2	0	0	1	0	195.173	0.372607	0.372617	-0.00578714	2	4.55861e-05	41	44.0171	-2.15639e-06
2	1	0	1	0	197.747	0.424083	0.424277	0.00106367	2	3.94256e-05	43	0.3648	4.51293e-07
2	1	0	1	0	200.228	0.473709	0.473747	0.0103103	3	5.27532e-05	42	2.8461	4.88446e-06
2	1	0	1	0	202.757	0.524285	0.524586	0.0258374	3	9.68877e-05	41	5.3749	1.35539e-05
2	1	0	1	0	205.256	0.574262	0.574307	0.0497228	3	0.000189877	41	7.8737	2.85562e-05
2	1	0	1	0	207.754	0.624238	0.624317	0.0760697	3	0.000348449	41	10.3725	4.74916e-05
2	1	0	1	0	210.253	0.674214	0.674392	0.0871615	3	0.000557329	41	12.8713	5.87811e-05
2	1	0	1	0	212.752	0.72419	0.724363	0.0802851	3	0.000769099	41	15.3702	5.81555e-05
2	1	0	1	0	215.251	0.774167	0.774623	0.0686006	3	0.000955453	41	17.869	5.31396e-05
2	1	0	1	0	217.75	0.824143	0.82424	0.058487	3	0.00111399	41	20.3678	4.82073e-05
2	1	0	1	0	220.248	0.874119	0.874004	0.0512027	3	0.00125083	41	22.8666	4.47513e-05
2	1	0	1	0	222.747	0.924095	0.924048	0.046137	3	0.00137238	41	25.3654	4.26328e-05
2	1	0	1	0	225.246	0.974071	0.974326	0.0425512	3	0.00148322	41	27.8642	4.14588e-05
2	1	0	1	0	227.705	0.976718	0.976721	0.0383894	3	0.00158347	41	30.3235	3.74957e-05
2	1	0	1	0	230.204	0.926744	0.926721	0.0353304	3	0.0016749	41	32.8223	3.27414e-05
2	1	0	1	0	232.703	0.876768	0.877105	0.0329657	3	0.00175974	41	35.3211	2.89144e-05
2	1	0	1	0	235.202	0.826791	0.827039	0.0306661	3	0.00183885	41	37.8199	2.53621e-05
2	1	0	1	0	237.701	0.776815	0.776723	0.0280048	3	0.00191183	41	40.3187	2.1752e-05
2	1	0	1	0	240.199	0.726839	0.726998	0.0245943	3	0.00197722	41	42.8175	1.788e-05
2	1	0	1	0	242.698	0.676863	0.67708	0.0201981	3	0.00203301	41	45.3163	1.36757e-05
2	1	0	1	0	245.197	0.626886	0.626997	0.0145784	3	0.00207633	41	47.8151	9.14063e-06
2	1	0	1	0	247.696	0.57691	0.577085	0.00850727	3	0.00210478	41	50.3139	4.90942e-06
2	1	0	1	0	250.225	0.526334	0.526581	0.00233602	3	0.00211838	42	52.8427	1.2301e-06
2	0	0	1	0	252.783	0.475159	0.475393	-0.00519111	3	0.00211533	42	1.6292	-2.46782e-06
2	0	0	1	0	255.312	0.424583	0.424761	-0.0171608	3	0.00208834	41	4.158	-7.28922e-06
2	0	0	1	0	257.811	0.374607	0.374776	-0.0375786	3	0.00202182	41	6.6568	-1.40836e-05
2	0	0	1	0	260.31	0.324631	0.324671	-0.0656656	3	0.00189332	41	9.1556	-2.13198e-05
2	0	0	1	0	262.809	0.274654	0.274704	-0.0868813	3	0.00169884	41	11.6545	-2.38667e-05
2	0	0	1	0	265.307	0.224678	0.2249	-0.0864648	3	0.00147769	41	14.1533	-1.94459e-05
2	0	0	1	0	267.806	0.174702	0.174739	-0.0736723	3	0.00127669	41	16.6521	-1.28734e-05
2	0	0	1	0	270.305	0.124725	0.125215	-0.0615233	3	0.00110837	41	19.1509	-7.70366e-06
2	0	0	1	0	272.804	0.0747491	0.0747826	-0.0527476	3	0.000966102	41	21.6497	-3.9446e-06
2	0	0	1	0	275.303	0.0247729	0.0250075	-0.0466812	3	0.000842148	41	24.1485	-1.16738e-06
2	0	0	1	1	277.78	0.0247729	0.025017	-0.0402616	3	0.000734056	41	26.6254	-1.00723e-06
2	0	0	1	1	280.278	0.0747491	0.0749418	-0.0358683	3	0.000639427	41	29.1242	-2.68803e-06
2	0	0	1	1	282.777	0.124725	0.124931	-0.0322287	3	0.000554588	41	31.623	-4.02638e-06
2	0	0	1	1	285.276	0.174702	0.175221	-0.0284917	3	0.000478834	41	34.1218	-4.99233e-06
2	0	0	1	1	287.775	0.224678	0.224775	-0.0239482	3	0.000413275	41	36.6206	-5.38296e-06
2	0	0	1	1	290.274	0.274654	0.275063	-0.0183208	3	0.000360411	41	39.1194	-5.03938e-06
2	0	0	1	1	292.772	0.324629	0.324897	-0.0119617	3	0.000322655	41	41.6182	-3.88633e-06
2	0	0	1	1	295.271	0.374607	0.374904	-0.00558768	3	0.00030089	41	44.1171	-2.09484e-06
2	1	0	1	1	297.86	0.426382	0.426682	0.00149504	3	0.000295406	42	0.4797	6.37908e-07
2	1	0	0	1	299.936	0.467937	0.46798	0.00910503	3	0.000305892	42	2.5553	4.26097e-06