File: Python/Data/RDE/240223-OCV-EIS-Fe2Fe3_5mM-HCl1M-225RPM-Ag_AgCl_BLF8-GC-RDE-1minRestVSEoc-3ppf-14p1mVAmplitude_07_OCV_C15.mpt
EC-Lab ASCII FILE
Nb header lines : 47

Open Circuit Voltage

Run on channel : 15 (SN 19485)
User :
Electrode connection : standard
Potential control : Ewe
Ewe ctrl range : min = -1.00 V, max = 1.00 V
Ewe,I filtering : 50 kHz
Safety Limits :
	Do not start on E overload
Channel : Floating
Acquisition started on : 02/23/2024 15:54:32.363
Loaded Setting File :  NONE
Saved on :
	File : 240223-OCV-EIS-Fe2Fe3_5mM-HCl1M-225RPM-Ag_AgCl_BLF8-GC-RDE-1minRestVSEoc-3ppf-14p1mVAmplitude_07_OCV_C15.mpr
	Directory : C:\Data\mathias\RDE-RPM-variation\
	Host : 192.168.0.1
Device : VMP-300 (SN 0826)
Address : USB
EC-Lab for windows v11.52 (software)
Internet server v11.52 (firmware)
Command interpretor v11.52 (firmware)
Electrode material :
Initial state :
Electrolyte :
Comments :
Cable : special
Reference electrode : SCE Saturated Calomel Electrode (0.241 V)
Electrode surface area : 0.001 cm²
Characteristic mass : 0.001 g
Equivalent Weight : 0.000 g/eq.
Density : 0.000 g/cm3
Volume (V) : 0.001 cm³
Record EIS quality indicators
Cycle Definition : Charge/Discharge alternance
tR (h:m:s)          0:01:0.0000
dER/dt (mV/h)       1.0
record              <Ewe>
dER (mV)            0.00
dtR (s)             0.5000
E range min (V)     -1.000
E range max (V)     1.000

mode	error	time/s	<Ewe/V>
3	0	1443.75	0.460914
3	0	1444.25	0.45995
3	0	1444.75	0.459714
3	0	1445.25	0.459618
3	0	1445.75	0.459572
3	0	1446.25	0.45955
3	0	1446.75	0.459534
3	0	1447.25	0.459526
3	0	1447.75	0.45952
3	0	1448.25	0.459519
3	0	1448.75	0.45952
3	0	1449.25	0.459521
3	0	1449.75	0.459518
3	0	1450.25	0.459519
3	0	1450.75	0.459518
3	0	1451.25	0.459518
3	0	1451.75	0.459517
3	0	1452.25	0.459515
3	0	1452.75	0.459509
3	0	1453.25	0.459509
3	0	1453.75	0.459509
3	0	1454.25	0.459509
3	0	1454.75	0.459509
3	0	1455.25	0.459509
3	0	1455.75	0.459508
3	0	1456.25	0.459512
3	0	1456.75	0.459516
3	0	1457.25	0.459511
3	0	1457.75	0.459508
3	0	1458.25	0.459506
3	0	1458.75	0.459505
3	0	1459.25	0.459506
3	0	1459.75	0.459502
3	0	1460.25	0.459501
3	0	1460.75	0.459498
3	0	1461.25	0.459497
3	0	1461.75	0.459497
3	0	1462.25	0.4595
3	0	1462.75	0.459498
3	0	1463.25	0.459499
3	0	1463.75	0.4595
3	0	1464.25	0.459501
3	0	1464.75	0.459498
3	0	1465.25	0.459493
3	0	1465.75	0.459491
3	0	1466.25	0.459492
3	0	1466.75	0.459491
3	0	1467.25	0.459493
3	0	1467.75	0.459491
3	0	1468.25	0.45949
3	0	1468.75	0.459489
3	0	1469.25	0.459488
3	0	1469.75	0.45949
3	0	1470.25	0.459488
3	0	1470.75	0.459485
3	0	1471.25	0.459487
3	0	1471.75	0.459487
3	0	1472.25	0.459488
3	0	1472.75	0.459487
3	0	1473.25	0.459483
3	0	1473.75	0.459484
3	0	1474.25	0.459487
3	0	1474.75	0.459487
3	0	1475.25	0.459486
3	0	1475.75	0.459485
3	0	1476.25	0.459486
3	0	1476.75	0.459488
3	0	1477.25	0.459485
3	0	1477.75	0.459483
3	0	1478.25	0.459477
3	0	1478.75	0.459474
3	0	1479.25	0.459478
3	0	1479.75	0.45948
3	0	1480.25	0.459481
3	0	1480.75	0.459482
3	0	1481.25	0.459481
3	0	1481.75	0.459484
3	0	1482.25	0.459485
3	0	1482.75	0.459485
3	0	1483.25	0.459482
3	0	1483.75	0.459482
3	0	1484.25	0.459481
3	0	1484.75	0.459473
3	0	1485.25	0.459469
3	0	1485.75	0.459478
3	0	1486.25	0.45948
3	0	1486.75	0.459478
3	0	1487.25	0.459475
3	0	1487.75	0.459476
3	0	1488.25	0.459477
3	0	1488.75	0.459478
3	0	1489.25	0.45948
3	0	1489.75	0.459481
3	0	1490.25	0.459481
3	0	1490.75	0.459478
3	0	1491.25	0.459475
3	0	1491.75	0.459475
3	0	1492.25	0.459477
3	0	1492.75	0.459471
3	0	1493.25	0.45947
3	0	1493.75	0.45947
3	0	1494.25	0.459469
3	0	1494.75	0.459469
3	0	1495.25	0.459472
3	0	1495.75	0.459478
3	0	1496.25	0.459477
3	0	1496.75	0.459475
3	0	1497.25	0.459474
3	0	1497.75	0.459476
3	0	1498.25	0.459476
3	0	1498.75	0.459474
3	0	1499.25	0.459472
3	0	1499.75	0.459472
3	0	1500.25	0.459473
3	0	1500.75	0.459472
3	0	1501.25	0.459471
3	0	1501.75	0.459471
3	0	1502.25	0.459474
3	0	1502.75	0.459475
3	0	1503.25	0.459477
3	0	1503.41	0.459475