File: Python/Data/RDE/240223-OCV-EIS-Fe2Fe3_5mM-HCl1M-625RPM-Ag_AgCl_BLF8-GC-RDE-1minRestVSEoc-3ppf-14p1mVAmplitude_03_OCV_C15.mpt
EC-Lab ASCII FILE
Nb header lines : 47

Open Circuit Voltage

Run on channel : 15 (SN 19485)
User :
Electrode connection : standard
Potential control : Ewe
Ewe ctrl range : min = -1.00 V, max = 1.00 V
Ewe,I filtering : 50 kHz
Safety Limits :
	Do not start on E overload
Channel : Floating
Acquisition started on : 02/23/2024 15:19:09.853
Loaded Setting File :  NONE
Saved on :
	File : 240223-OCV-EIS-Fe2Fe3_5mM-HCl1M-625RPM-Ag_AgCl_BLF8-GC-RDE-1minRestVSEoc-3ppf-14p1mVAmplitude_03_OCV_C15.mpr
	Directory : C:\Data\mathias\RDE-RPM-variation\
	Host : 192.168.0.1
Device : VMP-300 (SN 0826)
Address : USB
EC-Lab for windows v11.52 (software)
Internet server v11.52 (firmware)
Command interpretor v11.52 (firmware)
Electrode material :
Initial state :
Electrolyte :
Comments :
Cable : special
Reference electrode : SCE Saturated Calomel Electrode (0.241 V)
Electrode surface area : 0.001 cm²
Characteristic mass : 0.001 g
Equivalent Weight : 0.000 g/eq.
Density : 0.000 g/cm3
Volume (V) : 0.001 cm³
Record EIS quality indicators
Cycle Definition : Charge/Discharge alternance
tR (h:m:s)          0:01:0.0000
dER/dt (mV/h)       1.0
record              <Ewe>
dER (mV)            0.00
dtR (s)             0.5000
E range min (V)     -1.000
E range max (V)     1.000

mode	error	time/s	<Ewe/V>
3	0	479.518	0.460766
3	0	480.018	0.460089
3	0	480.518	0.459922
3	0	481.018	0.459863
3	0	481.518	0.459833
3	0	482.018	0.459817
3	0	482.518	0.459804
3	0	483.018	0.459798
3	0	483.518	0.459793
3	0	484.018	0.45979
3	0	484.518	0.459786
3	0	485.018	0.459784
3	0	485.518	0.45978
3	0	486.018	0.459778
3	0	486.518	0.45978
3	0	487.018	0.459782
3	0	487.518	0.459779
3	0	488.018	0.459779
3	0	488.518	0.459778
3	0	489.018	0.459773
3	0	489.518	0.459775
3	0	490.018	0.459775
3	0	490.518	0.459769
3	0	491.018	0.459772
3	0	491.518	0.459774
3	0	492.018	0.459773
3	0	492.518	0.459772
3	0	493.018	0.459772
3	0	493.518	0.459771
3	0	494.018	0.459769
3	0	494.518	0.459773
3	0	495.018	0.459772
3	0	495.518	0.459772
3	0	496.018	0.459774
3	0	496.518	0.459774
3	0	497.018	0.459774
3	0	497.518	0.459773
3	0	498.018	0.459773
3	0	498.518	0.459776
3	0	499.018	0.459776
3	0	499.518	0.45977
3	0	500.018	0.45977
3	0	500.518	0.459771
3	0	501.018	0.459779
3	0	501.518	0.459785
3	0	502.018	0.459785
3	0	502.518	0.459785
3	0	503.018	0.459784
3	0	503.518	0.459786
3	0	504.018	0.459776
3	0	504.518	0.45977
3	0	505.018	0.45977
3	0	505.518	0.459771
3	0	506.018	0.459774
3	0	506.518	0.459773
3	0	507.018	0.459773
3	0	507.518	0.459771
3	0	508.018	0.459769
3	0	508.518	0.459771
3	0	509.018	0.459773
3	0	509.518	0.459771
3	0	510.018	0.459769
3	0	510.518	0.459769
3	0	511.018	0.459771
3	0	511.518	0.459774
3	0	512.018	0.459773
3	0	512.518	0.459773
3	0	513.018	0.459768
3	0	513.518	0.459768
3	0	514.018	0.459768
3	0	514.518	0.459768
3	0	515.018	0.459764
3	0	515.518	0.459764
3	0	516.018	0.459764
3	0	516.518	0.459762
3	0	517.018	0.459763
3	0	517.518	0.459765
3	0	518.018	0.459767
3	0	518.518	0.459765
3	0	519.018	0.459764
3	0	519.518	0.459764
3	0	520.018	0.459763
3	0	520.518	0.459765
3	0	521.018	0.459763
3	0	521.518	0.459764
3	0	522.018	0.459762
3	0	522.518	0.459764
3	0	523.018	0.459764
3	0	523.518	0.459766
3	0	524.018	0.459767
3	0	524.518	0.459766
3	0	525.018	0.459766
3	0	525.518	0.459766
3	0	526.018	0.459762
3	0	526.518	0.459765
3	0	527.018	0.459766
3	0	527.518	0.459767
3	0	528.018	0.459764
3	0	528.518	0.459762
3	0	529.018	0.459763
3	0	529.518	0.459762
3	0	530.018	0.459764
3	0	530.518	0.459763
3	0	531.018	0.459761
3	0	531.518	0.45976
3	0	532.018	0.459759
3	0	532.518	0.459758
3	0	533.018	0.459757
3	0	533.518	0.459755
3	0	534.018	0.459758
3	0	534.518	0.459759
3	0	535.018	0.459757
3	0	535.518	0.459759
3	0	536.018	0.459756
3	0	536.518	0.459758
3	0	537.018	0.459756
3	0	537.518	0.459757
3	0	538.018	0.459757
3	0	538.518	0.459758
3	0	539.018	0.459759
3	0	539.177	0.459757