File: Python/Data/RDE/240223-OCV-EIS-Fe2Fe3_5mM-HCl1M-0RPM-Ag_AgCl_BLF8-GC-RDE-1minRestVSEoc-3ppf-14p1mVAmplitude_06_PEIS_C15.mpt
EC-Lab ASCII FILE
Nb header lines : 67

Potentio Electrochemical Impedance Spectroscopy

Run on channel : 15 (SN 19485)
User :
Electrode connection : standard
Potential control : Ewe
Ewe ctrl range : min = -1.00 V, max = 1.00 V
Ewe,I filtering : 50 kHz
Safety Limits :
	Do not start on E overload
Channel : Floating
Acquisition started on : 02/23/2024 16:29:27.631
Loaded Setting File :  NONE
Saved on :
	File : 240223-OCV-EIS-Fe2Fe3_5mM-HCl1M-0RPM-Ag_AgCl_BLF8-GC-RDE-1minRestVSEoc-3ppf-14p1mVAmplitude_06_PEIS_C15.mpr
	Directory : C:\Data\mathias\RDE-RPM-variation\
	Host : 192.168.0.1
Device : VMP-300 (SN 0826)
Address : USB
EC-Lab for windows v11.52 (software)
Internet server v11.52 (firmware)
Command interpretor v11.52 (firmware)
Electrode material :
Initial state :
Electrolyte :
Comments :
Cable : special
Reference electrode : SCE Saturated Calomel Electrode (0.241 V)
Electrode surface area : 0.001 cm²
Characteristic mass : 0.001 g
Equivalent Weight : 0.000 g/eq.
Density : 0.000 g/cm3
Volume (V) : 0.001 cm³
Record EIS quality indicators
Cycle Definition : Charge/Discharge alternance
Mode                Single sine
E (V)               0.0000
vs.                 Eoc
tE (h:m:s)          0:01:0.0000
record              0
dI                  0.000
unit dI             mA
dt (s)              0.000
fi                  1.000
unit fi             MHz
ff                  100.000
unit ff             mHz
Nd                  10
Points              per decade
spacing             Logarithmic
Va (mV)             14.1
pw                  0.10
Na                  3
corr                0
E range min (V)     -1.000
E range max (V)     1.000
I Range             Auto
Bandwidth           8
nc cycles           0
goto Ns'            0
nr cycles           0
inc. cycle          1

freq/Hz	Re(Z)/Ohm	-Im(Z)/Ohm	|Z|/Ohm	Phase(Z)/deg	time/s	<Ewe>/V	<I>/mA	Cs/µF	Cp/µF	cycle number	I Range	|Ewe|/V	|I|/A	Ns	(Q-Qo)/mA.h	THD Ewe/%	NSD Ewe/%	NSR Ewe/%	|Ewe h2|/V	|Ewe h3|/V	|Ewe h4|/V	|Ewe h5|/V	|Ewe h6|/V	|Ewe h7|/V	THD I/%	NSD I/%	NSR I/%	|I h2|/A	|I h3|/A	|I h4|/A	|I h5|/A	|I h6|/A	|I h7|/A	Re(Y)/Ohm-1	Im(Y)/Ohm-1	|Y|/Ohm-1	Phase(Y)/deg	Re(C)/nF	Im(C)/nF	|C|/nF	Phase(C)/deg	Re(M)	Im(M)	|M|	Phase(M)/deg	Re(Permittivity)	Im(Permittivity)	|Permittivity|	Phase(Permittivity)/deg	Re(Resistivity)/Ohm.cm	Im(Resistivity)/Ohm.cm	|Resistivity|/Ohm.cm	Phase(Resistivity)/deg	Re(Conductivity)/mS/cm	Im(Conductivity)/mS/cm	|Conductivity|/mS/cm	Phase(Conductivity)/deg	Tan(Delta)	Loss Angle(Delta)/deg	dq/mA.h
1.00002e+06	3.51964	4.07666	5.38582	-49.1939	1087.74	0.459302	-0.00940493	0.0390398	0.0223673	1	38	0.0111347	0.0020674	0	-6.96311e-06	-1	-1	-1	0	0	0	0	0	0	-1	-1	-1	0	0	0	0	0	0	0.121337	0.14054	0.185673	49.1939	22.3673	19.3111	29.5502	-40.8061	0.0000000E+000	0.0000000E+000	0.0000000E+000	40.8061	0.0000000E+000	0.0000000E+000	0.0000000E+000	-40.8061	0.0000000E+000	0.0000000E+000	0.0000000E+000	-49.1939	0.0000000E+000	0.0000000E+000	0.0000000E+000	49.1939	0.863363	40.8061	-6.96311e-06
316230	3.43521	1.36326	3.69583	-21.6456	1093.34	0.459301	-0.000182663	0.36918	0.050231	1	38	0.0145955	0.00394918	0	-1.7887e-05	-1	-1	-1	0	0	0	0	0	0	-1	-1	-1	0	0	0	0	0	0	0.251495	0.0998056	0.270575	21.6456	50.231	126.575	136.177	-68.3544	0.0000000E+000	0.0000000E+000	0.0000000E+000	68.3544	0.0000000E+000	0.0000000E+000	0.0000000E+000	-68.3544	0.0000000E+000	0.0000000E+000	0.0000000E+000	-21.6456	0.0000000E+000	0.0000000E+000	0.0000000E+000	21.6456	2.51985	68.3544	-3.2284e-06
100004	3.4002	1.05325	3.5596	-17.211	1099.07	0.45934	-0.000283204	1.51102	0.132293	1	38	0.0145703	0.00409324	0	-1.51892e-05	0.491018	0.285217	8.88888	2.17019e-05	1.20172e-05	2.297e-05	2.84527e-05	3.95216e-05	3.45269e-05	0.0656018	0.021358	0.707971	1.89741e-06	1.20404e-06	7.06807e-07	7.61985e-07	5.9812e-07	5.0974e-07	0.268351	0.083125	0.280931	17.211	132.293	427.078	447.098	-72.789	0.0000000E+000	0.0000000E+000	0.0000000E+000	72.789	0.0000000E+000	0.0000000E+000	0.0000000E+000	-72.789	0.0000000E+000	0.0000000E+000	0.0000000E+000	-17.211	0.0000000E+000	0.0000000E+000	0.0000000E+000	17.211	3.22828	72.789	2.65638e-06
31621.1	3.58666	2.17667	4.19548	-31.2526	1104.81	0.459309	-0.000750564	2.31234	0.622403	1	38	0.0146674	0.00349601	0	-1.14889e-06	0.47406	0.237543	8.51808	1.90766e-05	2.76573e-05	2.43296e-05	1.90627e-05	3.26476e-05	2.69705e-05	0.0464573	0.0557399	0.823605	2.95095e-07	9.53257e-07	5.36599e-07	6.81325e-07	4.31516e-07	6.20215e-07	0.203764	0.12366	0.238352	31.2526	622.403	1025.58	1199.67	-58.7474	0.0000000E+000	0.0000000E+000	0.0000000E+000	58.7474	0.0000000E+000	0.0000000E+000	0.0000000E+000	-58.7474	0.0000000E+000	0.0000000E+000	0.0000000E+000	-31.2526	0.0000000E+000	0.0000000E+000	0.0000000E+000	31.2526	1.64778	58.7474	3.59155e-06
10002.2	4.19	5.94329	7.27178	-54.8163	1110.54	0.459305	-0.000247894	2.6773	1.78842	1	38	0.0146323	0.0020122	0	8.95898e-06	0.41903	0.259609	8.68986	2.68219e-05	1.55572e-05	2.94613e-05	1.42994e-05	2.74201e-05	2.37807e-05	0.190041	0.0594975	1.42733	3.47398e-06	4.74084e-07	7.36962e-07	8.8631e-07	5.43514e-07	4.72305e-07	0.0792377	0.112395	0.137518	54.8163	1788.42	1260.83	2188.18	-35.1837	0.0000000E+000	0.0000000E+000	0.0000000E+000	35.1837	0.0000000E+000	0.0000000E+000	0.0000000E+000	-35.1837	0.0000000E+000	0.0000000E+000	0.0000000E+000	-54.8163	0.0000000E+000	0.0000000E+000	0.0000000E+000	54.8163	0.704996	35.1837	4.36335e-06
3163.04	6.34156	16.6111	17.7804	-69.1048	1116.32	0.459176	-0.00131854	3.02913	2.64381	1	38	0.0139779	0.000786141	0	7.37689e-06	0.626184	0.303135	9.3194	4.34844e-05	1.94461e-05	3.31679e-05	3.15714e-05	3.69941e-05	3.73436e-05	0.860371	0.139047	3.70191	6.08886e-06	2.50792e-06	5.47673e-07	6.96591e-07	6.69307e-07	7.989e-07	0.0200592	0.0525429	0.0562417	69.1048	2643.81	1009.32	2829.92	-20.8952	0.0000000E+000	0.0000000E+000	0.0000000E+000	20.8952	0.0000000E+000	0.0000000E+000	0.0000000E+000	-20.8952	0.0000000E+000	0.0000000E+000	0.0000000E+000	-69.1048	0.0000000E+000	0.0000000E+000	0.0000000E+000	69.1048	0.381767	20.8952	-2.27666e-07
999.682	13.6098	44.9391	46.9547	-73.1511	1122.11	0.459164	-0.000384337	3.5427	3.24507	1	39	0.0140311	0.000298823	0	5.55933e-06	0.603768	0.326781	9.11991	4.12159e-05	4.39224e-05	1.71695e-05	3.0368e-05	2.71259e-05	1.98718e-05	1.21113	0.181107	4.45144	2.95644e-06	1.86049e-06	2.62877e-07	7.40851e-07	2.91158e-07	3.26087e-07	0.00617295	0.0203829	0.0212971	73.1511	3245.07	982.768	3390.62	-16.8489	0.0000000E+000	0.0000000E+000	0.0000000E+000	16.8489	0.0000000E+000	0.0000000E+000	0.0000000E+000	-16.8489	0.0000000E+000	0.0000000E+000	0.0000000E+000	-73.1511	0.0000000E+000	0.0000000E+000	0.0000000E+000	73.1511	0.30285	16.8489	-8.88237e-08
316.316	36.5711	117.331	122.898	-72.6881	1127.64	0.459175	7.82511e-05	4.28832	3.90859	1	39	0.0130097	0.000105858	0	5.86061e-06	0.57532	0.265637	9.69337	1.95642e-05	3.36517e-05	4.19039e-05	2.51748e-05	2.88771e-05	2.08387e-05	1.16904	0.270983	12.5157	8.06768e-07	4.86641e-07	3.19049e-07	3.9296e-07	3.27708e-07	2.64104e-07	0.00242129	0.00776821	0.00813681	72.6881	3908.59	1218.28	4094.05	-17.3119	0.0000000E+000	0.0000000E+000	0.0000000E+000	17.3119	0.0000000E+000	0.0000000E+000	0.0000000E+000	-17.3119	0.0000000E+000	0.0000000E+000	0.0000000E+000	-72.6881	0.0000000E+000	0.0000000E+000	0.0000000E+000	72.6881	0.311692	17.3119	7.46324e-08
99.9682	108.355	293.335	312.708	-69.7262	1133.4	0.459157	7.00179e-06	5.42744	4.77579	1	40	0.0130683	4.17908e-05	0	5.857e-06	0.790154	0.497342	15.5179	1.85105e-05	4.02908e-05	3.86956e-05	5.55415e-05	4.0271e-05	2.64935e-05	0.935066	0.252418	6.354	3.30667e-07	1.50716e-07	5.10296e-08	1.17757e-07	4.00913e-08	2.54307e-08	0.00110808	0.00299976	0.00319788	69.7262	4775.79	1764.13	5091.2	-20.2737	0.0000000E+000	0.0000000E+000	0.0000000E+000	20.2737	0.0000000E+000	0.0000000E+000	0.0000000E+000	-20.2737	0.0000000E+000	0.0000000E+000	0.0000000E+000	-69.7262	0.0000000E+000	0.0000000E+000	0.0000000E+000	69.7262	0.36939	20.2737	-3.6104e-08
31.6296	333.894	685.739	762.707	-64.038	1138.72	0.459139	1.04657e-05	7.33784	5.93157	1	40	0.0128744	1.68799e-05	0	5.70493e-06	0.73829	0.448877	15.7658	6.47933e-05	3.25268e-05	2.73488e-05	2.18854e-05	3.4666e-05	2.40089e-05	1.24019	0.355839	15.8745	1.72607e-07	7.99175e-08	3.92246e-08	3.35884e-08	5.03384e-08	2.38291e-08	0.000573974	0.00117881	0.00131112	64.038	5931.57	2888.15	6597.34	-25.962	0.0000000E+000	0.0000000E+000	0.0000000E+000	25.962	0.0000000E+000	0.0000000E+000	0.0000000E+000	-25.962	0.0000000E+000	0.0000000E+000	0.0000000E+000	-64.038	0.0000000E+000	0.0000000E+000	0.0000000E+000	64.038	0.486911	25.962	-2.94376e-08
9.99682	1048.19	1359.3	1716.51	-52.3632	1144.43	0.459173	-4.6728e-05	11.7124	7.34483	1	41	0.0129205	7.52719e-06	0	5.57501e-06	0.871333	0.619413	19.3236	2.68391e-05	5.12736e-05	5.41674e-05	3.53255e-05	2.85243e-05	5.06185e-05	1.03485	0.190097	6.45284	6.07293e-08	2.93171e-08	1.01171e-08	3.48356e-08	5.56331e-09	7.83985e-09	0.000355754	0.000461343	0.000582579	52.3632	7344.83	5663.81	9274.98	-37.6368	0.0000000E+000	0.0000000E+000	0.0000000E+000	37.6368	0.0000000E+000	0.0000000E+000	0.0000000E+000	-37.6368	0.0000000E+000	0.0000000E+000	0.0000000E+000	-52.3632	0.0000000E+000	0.0000000E+000	0.0000000E+000	52.3632	0.771128	37.6368	-2.84417e-08
3.16296	2546.01	1722.43	3073.92	-34.0792	1152.87	0.459209	-4.83336e-05	29.2136	9.17244	1	41	0.0128797	4.18999e-06	0	5.4357e-06	0.42731	0.245353	8.78802	1.80823e-05	2.25188e-05	2.83396e-05	1.03971e-05	1.69364e-05	2.00598e-05	0.866528	0.185716	5.45767	3.09153e-08	1.44589e-08	6.12257e-09	7.93756e-09	3.51145e-09	3.9845e-09	0.000269449	0.000182288	0.000325318	34.0792	9172.44	13558.2	16369.5	-55.9208	0.0000000E+000	0.0000000E+000	0.0000000E+000	55.9208	0.0000000E+000	0.0000000E+000	0.0000000E+000	-55.9208	0.0000000E+000	0.0000000E+000	0.0000000E+000	-34.0792	0.0000000E+000	0.0000000E+000	0.0000000E+000	34.0792	1.47815	55.9208	-3.12343e-08
1.00006	3854.44	1216.69	4041.91	-17.5188	1176.29	0.459226	-4.92636e-05	130.802	11.8522	1	42	0.0128706	3.18428e-06	0	5.11583e-06	0.241417	0.182115	4.81252	1.43233e-05	5.25612e-06	1.08946e-05	7.59203e-06	1.45897e-05	1.51658e-05	0.763413	0.0558134	0.991351	2.19107e-08	9.78994e-09	5.30876e-10	3.66091e-09	7.71497e-10	4.09355e-10	0.000235933	7.44743e-05	0.000247408	17.5188	11852.2	37547.5	39373.7	-72.4812	0.0000000E+000	0.0000000E+000	0.0000000E+000	72.4812	0.0000000E+000	0.0000000E+000	0.0000000E+000	-72.4812	0.0000000E+000	0.0000000E+000	0.0000000E+000	-17.5188	0.0000000E+000	0.0000000E+000	0.0000000E+000	17.5188	3.16797	72.4812	-1.58379e-07
0.316193	4455.46	707.413	4511.27	-9.0218	1242.09	0.459222	-4.76637e-05	711.533	17.4962	1	42	0.0128602	2.85068e-06	0	4.05744e-06	0.172312	0.0642594	2.58675	4.11488e-06	1.00083e-05	1.05217e-05	1.06456e-05	7.11016e-06	7.83841e-06	0.775515	0.0596895	1.12675	2.01396e-08	8.67541e-09	4.33319e-10	2.64588e-09	4.59146e-10	4.12981e-10	0.000218925	3.47597e-05	0.000221667	9.0218	17496.2	110195	111576	-80.9782	0.0000000E+000	0.0000000E+000	0.0000000E+000	80.9782	0.0000000E+000	0.0000000E+000	0.0000000E+000	-80.9782	0.0000000E+000	0.0000000E+000	0.0000000E+000	-9.0218	0.0000000E+000	0.0000000E+000	0.0000000E+000	9.0218	6.29824	80.9782	-1.15689e-07
0.0999518	4769.22	467.47	4792.07	-5.59814	1446.67	0.45924	-3.93609e-05	3406.25	32.4143	1	42	0.0128663	2.68492e-06	0	6.39252e-07	0.127583	0.0463783	1.5562	3.68142e-06	1.01925e-05	3.21447e-06	9.36895e-06	3.53824e-06	4.57924e-06	0.77987	0.0638542	1.26051	1.93961e-08	7.61367e-09	2.88936e-10	1.98332e-09	2.02604e-10	1.82182e-10	0.000207683	2.03567e-05	0.000208678	5.59814	32414.3	330697	332282	-84.4019	0.0000000E+000	0.0000000E+000	0.0000000E+000	84.4019	0.0000000E+000	0.0000000E+000	0.0000000E+000	-84.4019	0.0000000E+000	0.0000000E+000	0.0000000E+000	-5.59814	0.0000000E+000	0.0000000E+000	0.0000000E+000	5.59814	10.2022	84.4019	-1.31522e-06