File: Python/Data/RDE/240223-OCV-EIS-Fe2Fe3_5mM-HCl1M-0RPM-Ag_AgCl_BLF8-GC-RDE-1minRestVSEoc-3ppf-14p1mVAmplitude_04_PEIS_C15.mpt
EC-Lab ASCII FILE
Nb header lines : 67

Potentio Electrochemical Impedance Spectroscopy

Run on channel : 15 (SN 19485)
User :
Electrode connection : standard
Potential control : Ewe
Ewe ctrl range : min = -1.00 V, max = 1.00 V
Ewe,I filtering : 50 kHz
Safety Limits :
	Do not start on E overload
Channel : Floating
Acquisition started on : 02/23/2024 16:29:27.631
Loaded Setting File :  NONE
Saved on :
	File : 240223-OCV-EIS-Fe2Fe3_5mM-HCl1M-0RPM-Ag_AgCl_BLF8-GC-RDE-1minRestVSEoc-3ppf-14p1mVAmplitude_04_PEIS_C15.mpr
	Directory : C:\Data\mathias\RDE-RPM-variation\
	Host : 192.168.0.1
Device : VMP-300 (SN 0826)
Address : USB
EC-Lab for windows v11.52 (software)
Internet server v11.52 (firmware)
Command interpretor v11.52 (firmware)
Electrode material :
Initial state :
Electrolyte :
Comments :
Cable : special
Reference electrode : SCE Saturated Calomel Electrode (0.241 V)
Electrode surface area : 0.001 cm²
Characteristic mass : 0.001 g
Equivalent Weight : 0.000 g/eq.
Density : 0.000 g/cm3
Volume (V) : 0.001 cm³
Record EIS quality indicators
Cycle Definition : Charge/Discharge alternance
Mode                Single sine
E (V)               0.0000
vs.                 Eoc
tE (h:m:s)          0:01:0.0000
record              0
dI                  0.000
unit dI             mA
dt (s)              0.000
fi                  1.000
unit fi             MHz
ff                  100.000
unit ff             mHz
Nd                  10
Points              per decade
spacing             Logarithmic
Va (mV)             14.1
pw                  0.10
Na                  3
corr                0
E range min (V)     -1.000
E range max (V)     1.000
I Range             Auto
Bandwidth           8
nc cycles           0
goto Ns'            0
nr cycles           0
inc. cycle          1

freq/Hz	Re(Z)/Ohm	-Im(Z)/Ohm	|Z|/Ohm	Phase(Z)/deg	time/s	<Ewe>/V	<I>/mA	Cs/µF	Cp/µF	cycle number	I Range	|Ewe|/V	|I|/A	Ns	(Q-Qo)/mA.h	THD Ewe/%	NSD Ewe/%	NSR Ewe/%	|Ewe h2|/V	|Ewe h3|/V	|Ewe h4|/V	|Ewe h5|/V	|Ewe h6|/V	|Ewe h7|/V	THD I/%	NSD I/%	NSR I/%	|I h2|/A	|I h3|/A	|I h4|/A	|I h5|/A	|I h6|/A	|I h7|/A	Re(Y)/Ohm-1	Im(Y)/Ohm-1	|Y|/Ohm-1	Phase(Y)/deg	Re(C)/nF	Im(C)/nF	|C|/nF	Phase(C)/deg	Re(M)	Im(M)	|M|	Phase(M)/deg	Re(Permittivity)	Im(Permittivity)	|Permittivity|	Phase(Permittivity)/deg	Re(Resistivity)/Ohm.cm	Im(Resistivity)/Ohm.cm	|Resistivity|/Ohm.cm	Phase(Resistivity)/deg	Re(Conductivity)/mS/cm	Im(Conductivity)/mS/cm	|Conductivity|/mS/cm	Phase(Conductivity)/deg	Tan(Delta)	Loss Angle(Delta)/deg	dq/mA.h
1.00002e+06	3.5156	4.06902	5.37739	-49.1732	605.465	0.459385	-0.0106655	0.0391131	0.0223954	1	38	0.011116	0.00206718	0	-6.9191e-06	-1	-1	-1	0	0	0	0	0	0	-1	-1	-1	0	0	0	0	0	0	0.121578	0.140717	0.185964	49.1732	22.3954	19.3494	29.5965	-40.8268	0.0000000E+000	0.0000000E+000	0.0000000E+000	40.8268	0.0000000E+000	0.0000000E+000	0.0000000E+000	-40.8268	0.0000000E+000	0.0000000E+000	0.0000000E+000	-49.1732	0.0000000E+000	0.0000000E+000	0.0000000E+000	49.1732	0.863992	40.8268	-6.9191e-06
316230	3.4302	1.35177	3.68695	-21.5084	611.064	0.459392	-0.00143016	0.372317	0.0500481	1	38	0.014532	0.00394147	0	1.92041e-06	-1	-1	-1	0	0	0	0	0	0	-1	-1	-1	0	0	0	0	0	0	0.25234	0.0994421	0.271227	21.5084	50.0481	127	136.506	-68.4916	0.0000000E+000	0.0000000E+000	0.0000000E+000	68.4916	0.0000000E+000	0.0000000E+000	0.0000000E+000	-68.4916	0.0000000E+000	0.0000000E+000	0.0000000E+000	-21.5084	0.0000000E+000	0.0000000E+000	0.0000000E+000	21.5084	2.53756	68.4916	-2.94995e-06
100004	3.40112	1.05706	3.5616	-17.2652	616.8	0.459402	-0.00273164	1.50558	0.132622	1	38	0.0145883	0.00409598	0	2.09662e-05	0.44333	0.2241	8.72496	1.2341e-05	3.50282e-05	3.92043e-05	1.97978e-05	1.66096e-05	1.70454e-05	0.0676676	0.034943	0.691735	1.96492e-06	1.44632e-06	5.58262e-07	5.80272e-07	6.7651e-07	5.78846e-07	0.268121	0.0833317	0.280772	17.2652	132.622	426.712	446.846	-72.7348	0.0000000E+000	0.0000000E+000	0.0000000E+000	72.7348	0.0000000E+000	0.0000000E+000	0.0000000E+000	-72.7348	0.0000000E+000	0.0000000E+000	0.0000000E+000	-17.2652	0.0000000E+000	0.0000000E+000	0.0000000E+000	17.2652	3.21752	72.7348	2.26299e-06
31621.1	3.58297	2.17238	4.1901	-31.2288	622.536	0.459386	-0.00187703	2.31689	0.622775	1	38	0.0146488	0.00349606	0	1.00245e-05	0.536903	0.201538	8.6179	3.5712e-05	3.37396e-05	3.33598e-05	1.62052e-05	2.89627e-05	2.72406e-05	0.0584164	0.0455603	0.822446	7.48078e-07	1.10712e-06	8.87508e-07	5.27269e-07	7.78522e-07	5.05197e-07	0.204077	0.123734	0.238658	31.2288	622.775	1027.16	1201.21	-58.7712	0.0000000E+000	0.0000000E+000	0.0000000E+000	58.7712	0.0000000E+000	0.0000000E+000	0.0000000E+000	-58.7712	0.0000000E+000	0.0000000E+000	0.0000000E+000	-31.2288	0.0000000E+000	0.0000000E+000	0.0000000E+000	31.2288	1.64933	58.7712	-1.0181e-06
10002.2	4.18858	5.93827	7.26686	-54.8026	628.27	0.45939	-0.00129617	2.67956	1.78933	1	38	0.0146273	0.00201288	0	-7.90955e-07	0.564736	0.166608	8.60986	4.08906e-05	2.64641e-05	1.67059e-05	3.88451e-05	2.792e-05	2.67753e-05	0.209218	0.0400255	1.44548	3.83771e-06	7.62895e-07	4.3876e-07	7.81426e-07	7.36272e-07	5.6422e-07	0.0793182	0.112452	0.137611	54.8026	1789.33	1262.11	2189.66	-35.1974	0.0000000E+000	0.0000000E+000	0.0000000E+000	35.1974	0.0000000E+000	0.0000000E+000	0.0000000E+000	-35.1974	0.0000000E+000	0.0000000E+000	0.0000000E+000	-54.8026	0.0000000E+000	0.0000000E+000	0.0000000E+000	54.8026	0.705353	35.1974	-1.309e-06
3163.04	6.35294	16.5848	17.7599	-69.0403	634.05	0.459274	-0.00209497	3.03393	2.64571	1	38	0.0139705	0.000786629	0	-2.50783e-06	0.659162	0.327083	9.2901	7.27248e-05	3.91527e-05	2.0175e-05	7.85449e-06	1.82981e-05	2.41279e-05	0.745569	0.114873	3.67381	5.06056e-06	2.53341e-06	5.09442e-07	1.0536e-06	6.79369e-07	3.43531e-07	0.0201415	0.0525808	0.0563065	69.0403	2645.71	1013.46	2833.18	-20.9597	0.0000000E+000	0.0000000E+000	0.0000000E+000	20.9597	0.0000000E+000	0.0000000E+000	0.0000000E+000	-20.9597	0.0000000E+000	0.0000000E+000	0.0000000E+000	-69.0403	0.0000000E+000	0.0000000E+000	0.0000000E+000	69.0403	0.383058	20.9597	-5.99982e-07
999.682	13.7515	44.9788	47.034	-72.9999	639.834	0.459223	-3.33853e-05	3.53957	3.237	1	39	0.014053	0.000298784	0	-4.68774e-06	0.478422	0.24937	9.02712	1.52006e-05	3.87928e-05	3.4642e-05	1.63257e-05	2.10691e-05	2.56231e-05	1.16711	0.119257	4.4445	2.8315e-06	1.82397e-06	1.88629e-07	7.99896e-07	2.78994e-07	1.89561e-07	0.00621623	0.0203322	0.0212612	72.9999	3237	989.658	3384.9	-17.0001	0.0000000E+000	0.0000000E+000	0.0000000E+000	17.0001	0.0000000E+000	0.0000000E+000	0.0000000E+000	-17.0001	0.0000000E+000	0.0000000E+000	0.0000000E+000	-72.9999	0.0000000E+000	0.0000000E+000	0.0000000E+000	72.9999	0.305733	17.0002	-1.81875e-07
316.316	36.3297	117.358	122.853	-72.7994	645.362	0.459302	-0.000317059	4.28732	3.9124	1	39	0.01302	0.00010598	0	-4.67967e-06	0.555804	0.233515	10.1512	1.56349e-05	2.31326e-05	3.44599e-05	3.62127e-05	2.26259e-05	3.24387e-05	1.06616	0.320122	12.7944	7.3314e-07	6.12353e-07	3.36813e-07	2.95382e-07	1.77279e-07	3.09449e-07	0.00240709	0.00777578	0.00813983	72.7994	3912.4	1211.13	4095.57	-17.2006	0.0000000E+000	0.0000000E+000	0.0000000E+000	17.2006	0.0000000E+000	0.0000000E+000	0.0000000E+000	-17.2006	0.0000000E+000	0.0000000E+000	0.0000000E+000	-72.7994	0.0000000E+000	0.0000000E+000	0.0000000E+000	72.7994	0.309562	17.2006	-6.28944e-08
99.9682	107.338	293.329	312.351	-69.9009	651.123	0.459264	-4.83571e-05	5.42754	4.7866	1	40	0.0130867	4.18973e-05	0	-4.51475e-06	0.71887	0.344868	15.3682	2.39012e-05	2.89427e-05	4.12064e-05	2.66497e-05	4.31617e-05	4.19777e-05	0.986949	0.133592	6.33724	3.02123e-07	1.82327e-07	5.63688e-08	1.75637e-07	8.9159e-08	4.87056e-08	0.00110019	0.00300655	0.00320152	69.9009	4786.6	1751.56	5097.01	-20.0991	0.0000000E+000	0.0000000E+000	0.0000000E+000	20.0991	0.0000000E+000	0.0000000E+000	0.0000000E+000	-20.0991	0.0000000E+000	0.0000000E+000	0.0000000E+000	-69.9009	0.0000000E+000	0.0000000E+000	0.0000000E+000	69.9009	0.36593	20.0991	-1.34306e-08
31.6296	331.601	685.152	761.178	-64.1739	656.451	0.459287	-5.34989e-05	7.34412	5.95033	1	40	0.0128854	1.69282e-05	0	-4.52639e-06	0.821238	0.635303	15.7821	2.76691e-05	3.60959e-05	2.59769e-05	4.10351e-05	4.90461e-05	4.62357e-05	1.17775	0.52286	15.8231	1.22952e-07	7.96828e-08	5.17614e-08	6.76609e-08	5.10439e-08	7.16803e-08	0.000572325	0.00118254	0.00131375	64.1739	5950.33	2879.85	6610.59	-25.8261	0.0000000E+000	0.0000000E+000	0.0000000E+000	25.8261	0.0000000E+000	0.0000000E+000	0.0000000E+000	-25.8261	0.0000000E+000	0.0000000E+000	0.0000000E+000	-64.1739	0.0000000E+000	0.0000000E+000	0.0000000E+000	64.1739	0.483981	25.8261	-5.51399e-09
9.99682	1044.47	1353.11	1709.33	-52.3355	662.151	0.459291	-5.44024e-05	11.7659	7.3729	1	41	0.0128882	7.53992e-06	0	-4.60711e-06	1.11363	0.491786	19.3008	2.90969e-05	3.40959e-05	3.42244e-05	5.79087e-05	5.95029e-05	7.37881e-05	0.904481	0.153425	6.41424	5.71509e-08	2.89479e-08	5.19703e-09	1.09865e-08	8.98559e-09	1.4152e-08	0.00035747	0.000463106	0.000585023	52.3355	7372.9	5691.13	9313.89	-37.6645	0.0000000E+000	0.0000000E+000	0.0000000E+000	37.6645	0.0000000E+000	0.0000000E+000	0.0000000E+000	-37.6645	0.0000000E+000	0.0000000E+000	0.0000000E+000	-52.3355	0.0000000E+000	0.0000000E+000	0.0000000E+000	52.3355	0.771898	37.6645	-5.01952e-08
3.16296	2538.51	1719.97	3066.32	-34.1198	670.593	0.459274	-5.03799e-05	29.2553	9.20478	1	41	0.0128718	4.1978e-06	0	-4.67937e-06	0.365509	0.211527	8.72016	1.49386e-05	1.41918e-05	2.11175e-05	1.67398e-05	2.09847e-05	1.98034e-05	0.916902	0.160598	5.47601	3.18477e-08	1.65111e-08	4.5744e-09	1.07716e-08	4.46556e-09	4.43342e-09	0.000269987	0.000182931	0.000326124	34.1198	9204.79	13585.3	16410	-55.8802	0.0000000E+000	0.0000000E+000	0.0000000E+000	55.8802	0.0000000E+000	0.0000000E+000	0.0000000E+000	-55.8802	0.0000000E+000	0.0000000E+000	0.0000000E+000	-34.1198	0.0000000E+000	0.0000000E+000	0.0000000E+000	34.1198	1.4759	55.8802	3.30022e-08
1.00006	3845.61	1214.14	4032.72	-17.522	694.014	0.459299	-5.17632e-05	131.076	11.8814	1	42	0.0128616	3.18931e-06	0	-5.19062e-06	0.2566	0.10656	4.7776	1.30447e-05	1.85207e-05	1.43888e-05	8.39009e-06	7.97535e-06	8.30979e-06	0.77847	0.0390717	1.01966	2.22524e-08	1.04018e-08	4.12216e-10	3.51382e-09	1.46032e-10	4.79148e-10	0.000236466	7.46574e-05	0.000247971	17.522	11881.4	37632.4	39463.4	-72.478	0.0000000E+000	0.0000000E+000	0.0000000E+000	72.478	0.0000000E+000	0.0000000E+000	0.0000000E+000	-72.478	0.0000000E+000	0.0000000E+000	0.0000000E+000	-17.522	0.0000000E+000	0.0000000E+000	0.0000000E+000	17.522	3.16735	72.478	-2.40926e-07
0.316193	4451.71	707.425	4507.57	-9.02942	759.811	0.45929	-5.09861e-05	711.52	17.5252	1	42	0.0128702	2.85524e-06	0	-5.66282e-06	0.17409	0.0850755	2.61594	6.72044e-06	1.10241e-05	7.89552e-06	1.18543e-05	5.11765e-06	5.88876e-06	0.780612	0.0542979	1.12635	2.0526e-08	8.37711e-09	4.6722e-10	2.15935e-09	4.57541e-10	1.96522e-10	0.0002191	3.48173e-05	0.000221849	9.02942	17525.2	110283	111667	-80.9706	0.0000000E+000	0.0000000E+000	0.0000000E+000	80.9706	0.0000000E+000	0.0000000E+000	0.0000000E+000	-80.9706	0.0000000E+000	0.0000000E+000	0.0000000E+000	-9.02942	0.0000000E+000	0.0000000E+000	0.0000000E+000	9.02942	6.29284	80.9706	-5.34303e-08
0.0999518	4759.24	467.784	4782.18	-5.61355	964.394	0.459298	-4.67439e-05	3403.96	32.5704	1	42	0.0128656	2.69033e-06	0	-8.12571e-06	0.105094	0.0423187	1.55334	3.9747e-06	8.26592e-06	5.14635e-06	6.92282e-06	1.96257e-06	1.90428e-06	0.787487	0.0385874	1.32105	1.9629e-08	7.64185e-09	1.74091e-10	2.23567e-09	1.45743e-10	2.4602e-10	0.000208107	2.04547e-05	0.00020911	5.61355	32570.4	331372	332969	-84.3865	0.0000000E+000	0.0000000E+000	0.0000000E+000	84.3865	0.0000000E+000	0.0000000E+000	0.0000000E+000	-84.3865	0.0000000E+000	0.0000000E+000	0.0000000E+000	-5.61355	0.0000000E+000	0.0000000E+000	0.0000000E+000	5.61355	10.174	84.3865	1.56006e-07