File: Python/Data/RDE/240219-CV-EIS-Fe2Fe3_5mM-HCl1M-0RPM-Ag_AgCl_BLF8-GC-RDE_03_PEIS_C15.mpt
EC-Lab ASCII FILE
Nb header lines : 66

Potentio Electrochemical Impedance Spectroscopy

Run on channel : 15 (SN 19485)
User :
Electrode connection : standard
Potential control : Ewe
Ewe ctrl range : min = -1.00 V, max = 1.00 V
Ewe,I filtering : <None>
Safety Limits :
	Do not start on E overload
Channel : Floating
Acquisition started on : 02/19/2024 14:54:22.739
Loaded Setting File :  NONE
Saved on :
	File : 240219-CV-EIS-Fe2Fe3_5mM-HCl1M-0RPM-Ag_AgCl_BLF8-GC-RDE_03_PEIS_C15.mpr
	Directory : C:\Data\mathias\RDE-RPM-variation\
	Host : 192.168.0.1
Device : VMP-300 (SN 0826)
Address : USB
EC-Lab for windows v11.52 (software)
Internet server v11.52 (firmware)
Command interpretor v11.52 (firmware)
Electrode material :
Initial state :
Electrolyte :
Comments :
Cable : special
Electrode surface area : 0.001 cm²
Characteristic mass : 0.001 g
Equivalent Weight : 0.000 g/eq.
Density : 0.000 g/cm3
Volume (V) : 0.001 cm³
Record EIS quality indicators
Cycle Definition : Charge/Discharge alternance
Mode                Single sine
E (V)               0.0000
vs.                 Ref
tE (h:m:s)          0:00:0.0000
record              0
dI                  0.000
unit dI             mA
dt (s)              0.000
fi                  400.000
unit fi             kHz
ff                  100.000
unit ff             mHz
Nd                  10
Points              per decade
spacing             Logarithmic
Va (mV)             7.0
pw                  0.10
Na                  3
corr                0
E range min (V)     -1.000
E range max (V)     1.000
I Range             Auto
Bandwidth           8
nc cycles           2
goto Ns'            0
nr cycles           0
inc. cycle          1

freq/Hz	Re(Z)/Ohm	-Im(Z)/Ohm	|Z|/Ohm	Phase(Z)/deg	time/s	<Ewe>/V	<I>/mA	Cs/µF	Cp/µF	cycle number	I Range	|Ewe|/V	|I|/A	Ns	(Q-Qo)/mA.h	THD Ewe/%	NSD Ewe/%	NSR Ewe/%	|Ewe h2|/V	|Ewe h3|/V	|Ewe h4|/V	|Ewe h5|/V	|Ewe h6|/V	|Ewe h7|/V	THD I/%	NSD I/%	NSR I/%	|I h2|/A	|I h3|/A	|I h4|/A	|I h5|/A	|I h6|/A	|I h7|/A	Re(Y)/Ohm-1	Im(Y)/Ohm-1	|Y|/Ohm-1	Phase(Y)/deg	Re(C)/nF	Im(C)/nF	|C|/nF	Phase(C)/deg	Re(M)	Im(M)	|M|	Phase(M)/deg	Re(Permittivity)	Im(Permittivity)	|Permittivity|	Phase(Permittivity)/deg	Re(Resistivity)/Ohm.cm	Im(Resistivity)/Ohm.cm	|Resistivity|/Ohm.cm	Phase(Resistivity)/deg	Re(Conductivity)/mS/cm	Im(Conductivity)/mS/cm	|Conductivity|/mS/cm	Phase(Conductivity)/deg	Tan(Delta)	Loss Angle(Delta)/deg	dq/mA.h
399996	3.93573	1.34803	4.16019	-18.9069	362.413	-0.00014065	-0.0870532	0.295164	0.0309912	1	38	0.00655155	0.00157482	0	-7.80058e-05	-1	-1	-1	0	0	0	0	0	0	-1	-1	-1	0	0	0	0	0	0	0.227404	0.0778886	0.240374	18.9069	30.9912	90.4822	95.6425	-71.0931	0.0000000E+000	0.0000000E+000	0.0000000E+000	71.0931	0.0000000E+000	0.0000000E+000	0.0000000E+000	-71.0931	0.0000000E+000	0.0000000E+000	0.0000000E+000	-18.9069	0.0000000E+000	0.0000000E+000	0.0000000E+000	18.9069	2.91961	71.0931	-7.80058e-05
20032.3	4.0076	2.48887	4.71756	-31.8419	377.327	-0.000136754	-0.0409461	3.19217	0.888501	1	38	0.00726023	0.00153898	0	-0.00029614	0.854517	0.438283	13.6569	2.01104e-05	2.6139e-05	7.79494e-06	3.0819e-05	3.14891e-05	2.25464e-05	0.122684	0.0991318	1.77839	1.0218e-06	6.94028e-07	5.33223e-07	7.09035e-07	6.81983e-07	7.61198e-07	0.180073	0.111833	0.211974	31.8419	888.501	1430.67	1684.12	-58.1581	0.0000000E+000	0.0000000E+000	0.0000000E+000	58.1581	0.0000000E+000	0.0000000E+000	0.0000000E+000	-58.1581	0.0000000E+000	0.0000000E+000	0.0000000E+000	-31.8419	0.0000000E+000	0.0000000E+000	0.0000000E+000	31.8419	1.61021	58.1581	-1.64311e-05
1002.75	11.6988	35.935	37.7914	-71.9671	392.336	-0.000271769	-0.0283852	4.41681	3.99355	1	39	0.00750611	0.00019862	0	-0.000446521	0.792685	0.323611	13.6589	1.67332e-05	1.5713e-05	2.64297e-05	3.24622e-05	2.56863e-05	1.22923e-05	0.61058	0.166589	6.34377	4.29101e-07	8.00903e-07	2.79901e-07	5.37432e-07	2.95038e-07	2.47271e-07	0.00819137	0.0251612	0.026461	71.9671	3993.55	1300.12	4199.85	-18.0329	0.0000000E+000	0.0000000E+000	0.0000000E+000	18.0329	0.0000000E+000	0.0000000E+000	0.0000000E+000	-18.0329	0.0000000E+000	0.0000000E+000	0.0000000E+000	-71.9671	0.0000000E+000	0.0000000E+000	0.0000000E+000	71.9671	0.325555	18.0329	-1.05515e-05
50.2089	125.182	433.602	451.31	-73.8964	406.873	-0.000271788	-0.0263532	7.31053	6.74808	1	40	0.00679354	1.50529e-05	0	-0.000555153	1.65905	0.867237	28.7505	2.77513e-05	6.34044e-05	6.1726e-05	3.30017e-05	4.46207e-05	1.36723e-05	1.0513	0.511347	17.247	4.27691e-08	3.80023e-08	8.12605e-08	9.84559e-08	4.95679e-08	3.21333e-08	0.000614598	0.00212883	0.00221577	73.8964	6748.08	1948.19	7023.68	-16.1036	0.0000000E+000	0.0000000E+000	0.0000000E+000	16.1036	0.0000000E+000	0.0000000E+000	0.0000000E+000	-16.1036	0.0000000E+000	0.0000000E+000	0.0000000E+000	-73.8964	0.0000000E+000	0.0000000E+000	0.0000000E+000	73.8964	0.288702	16.1035	-7.76227e-06
2.51368	1998.66	4476.07	4902.02	-65.9382	425.908	-0.000205677	-0.0258939	14.1454	11.7939	1	41	0.00673127	1.37316e-06	0	-0.000691649	0.722314	0.358107	13.2877	1.61661e-05	2.26537e-05	1.84394e-05	1.65444e-05	2.11992e-05	1.51682e-05	0.764181	0.418472	13.2956	3.76839e-09	4.2738e-09	3.88201e-09	3.54592e-09	4.81897e-09	3.08791e-09	8.31741e-05	0.000186271	0.000203997	65.9382	11793.9	5266.22	12916.2	-24.0618	0.0000000E+000	0.0000000E+000	0.0000000E+000	24.0618	0.0000000E+000	0.0000000E+000	0.0000000E+000	-24.0618	0.0000000E+000	0.0000000E+000	0.0000000E+000	-65.9382	0.0000000E+000	0.0000000E+000	0.0000000E+000	65.9382	0.446521	24.0618	-2.00564e-05
0.125939	19891.2	35165.3	40401.1	-60.5054	654.147	-0.000209256	-0.0258311	35.9375	27.2262	1	41	0.00674223	1.66882e-07	0	-0.00232655	0.163076	0.0707786	2.81646	2.81513e-06	4.83039e-06	5.83006e-06	3.37704e-06	4.09118e-06	3.78502e-06	3.57504	9.80264	26.0378	3.8963e-09	2.68038e-09	2.32365e-09	1.52613e-09	1.10756e-09	9.03947e-10	1.21863e-05	2.1544e-05	2.47518e-05	60.5054	27226.2	15400.5	31280	-29.4946	0.0000000E+000	0.0000000E+000	0.0000000E+000	29.4946	0.0000000E+000	0.0000000E+000	0.0000000E+000	-29.4946	0.0000000E+000	0.0000000E+000	0.0000000E+000	-60.5054	0.0000000E+000	0.0000000E+000	0.0000000E+000	60.5054	0.565648	29.4946	-0.000349842
31751	3.90495	1.79735	4.29873	-24.7154	730.901	-0.000114255	-0.0269834	2.78888	0.487544	2	38	0.00731847	0.00170247	0	-0.00287705	0.763301	0.762303	13.5201	1.65197e-05	2.43202e-05	1.80864e-05	1.77393e-05	1.88514e-05	2.76989e-05	0.114297	0.196694	1.65749	4.21789e-07	9.88808e-07	7.82638e-07	7.34301e-07	5.44692e-07	7.52069e-07	0.211317	0.097264	0.232627	24.7154	487.544	1059.25	1166.06	-65.2846	0.0000000E+000	0.0000000E+000	0.0000000E+000	65.2846	0.0000000E+000	0.0000000E+000	0.0000000E+000	-65.2846	0.0000000E+000	0.0000000E+000	0.0000000E+000	-24.7154	0.0000000E+000	0.0000000E+000	0.0000000E+000	24.7154	2.17262	65.2846	-8.59879e-06
1589.49	8.73522	25.571	27.0219	-71.1395	745.737	-0.000236463	-0.0289292	3.91574	3.50654	2	38	0.00678335	0.000251032	0	-0.00299574	0.780021	0.371035	14.7811	1.94468e-05	2.58809e-05	1.53722e-05	1.86981e-05	1.78924e-05	2.22406e-05	0.744505	0.37742	11.1214	5.57946e-07	1.10681e-06	4.15921e-07	6.36506e-07	7.12803e-07	7.39483e-07	0.0119631	0.0350201	0.0370071	71.1395	3506.54	1197.86	3705.5	-18.8605	0.0000000E+000	0.0000000E+000	0.0000000E+000	18.8605	0.0000000E+000	0.0000000E+000	0.0000000E+000	-18.8605	0.0000000E+000	0.0000000E+000	0.0000000E+000	-71.1395	0.0000000E+000	0.0000000E+000	0.0000000E+000	71.1395	0.341606	18.8605	-8.57321e-06
79.6177	89.3479	315.258	327.674	-74.1766	760.597	-0.000218624	-0.0256739	6.34081	5.86937	2	40	0.00666458	2.0339e-05	0	-0.00310098	1.26758	0.71469	27.9472	4.41305e-05	4.15942e-05	3.82619e-05	2.6117e-05	1.42443e-05	1.97782e-05	0.816487	0.3315	12.0999	7.02867e-08	1.00241e-07	4.66348e-08	7.03337e-08	3.55654e-08	5.44777e-08	0.000832145	0.00293617	0.00305181	74.1766	5869.37	1663.45	6100.54	-15.8234	0.0000000E+000	0.0000000E+000	0.0000000E+000	15.8234	0.0000000E+000	0.0000000E+000	0.0000000E+000	-15.8234	0.0000000E+000	0.0000000E+000	0.0000000E+000	-74.1766	0.0000000E+000	0.0000000E+000	0.0000000E+000	74.1766	0.283412	15.8234	-7.55911e-06
3.98597	1409.17	3445.48	3722.52	-67.7558	776.671	-0.000207827	-0.025702	11.5887	9.92803	2	41	0.00658737	1.7696e-06	0	-0.00321457	1.04297	0.584046	18.2194	2.82333e-05	3.71657e-05	2.4928e-05	2.96204e-05	2.47434e-05	1.73129e-05	0.793616	0.412001	13.4574	4.19539e-09	7.25079e-09	5.24125e-09	6.77473e-09	4.53447e-09	4.03919e-09	0.000101693	0.000248643	0.000268636	67.7558	9928.03	4060.49	10726.3	-22.2442	0.0000000E+000	0.0000000E+000	0.0000000E+000	22.2442	0.0000000E+000	0.0000000E+000	0.0000000E+000	-22.2442	0.0000000E+000	0.0000000E+000	0.0000000E+000	-67.7558	0.0000000E+000	0.0000000E+000	0.0000000E+000	67.7558	0.408992	22.2442	-1.36338e-05
0.199573	14714.5	26883.9	30647.4	-61.3065	922.366	-0.000223664	-0.0257498	29.6637	22.8257	2	41	0.00658409	2.14834e-07	0	-0.00425096	0.232795	0.131563	3.76294	3.51982e-06	8.41283e-06	3.81623e-06	3.79482e-06	9.22822e-06	4.07813e-06	1.70608	4.30776	29.0515	1.4625e-09	1.72141e-09	1.25006e-09	8.18468e-10	1.86579e-09	9.56203e-10	1.56661e-05	2.86224e-05	3.26292e-05	61.3065	22825.7	12493.3	26021	-28.6935	0.0000000E+000	0.0000000E+000	0.0000000E+000	28.6935	0.0000000E+000	0.0000000E+000	0.0000000E+000	-28.6935	0.0000000E+000	0.0000000E+000	0.0000000E+000	-61.3065	0.0000000E+000	0.0000000E+000	0.0000000E+000	61.3065	0.547337	28.6935	-0.000220616
50326.6	3.82158	1.26348	4.02502	-18.2947	1084.48	-0.000152226	-0.0268549	2.50297	0.246634	3	38	0.00721652	0.00179291	0	-0.00542097	0.703758	0.38465	13.9382	3.02895e-05	1.8896e-05	2.07223e-05	1.28449e-05	9.98934e-06	2.16501e-05	0.117039	0.0774199	1.56419	6.64897e-07	1.20764e-06	5.57516e-07	6.47469e-07	8.30453e-07	7.90109e-07	0.235888	0.0779884	0.248446	18.2947	246.634	745.981	785.695	-71.7053	0.0000000E+000	0.0000000E+000	0.0000000E+000	71.7053	0.0000000E+000	0.0000000E+000	0.0000000E+000	-71.7053	0.0000000E+000	0.0000000E+000	0.0000000E+000	-18.2947	0.0000000E+000	0.0000000E+000	0.0000000E+000	18.2947	3.02465	71.7053	-7.8207e-06
2519.19	6.6016	17.2623	18.4815	-69.0717	1099.18	-0.00024968	-0.026989	3.65983	3.19287	3	38	0.00638683	0.000345579	0	-0.00552344	0.792113	0.52686	15.7095	5.58689e-06	1.62532e-05	2.29369e-05	2.33453e-05	2.10991e-05	1.9829e-05	0.538141	0.345875	8.11078	6.15255e-07	8.27354e-07	5.77977e-07	5.94442e-07	1.07402e-06	4.77083e-07	0.0193274	0.0505385	0.0541081	69.0717	3192.87	1221.05	3418.39	-20.9283	0.0000000E+000	0.0000000E+000	0.0000000E+000	20.9283	0.0000000E+000	0.0000000E+000	0.0000000E+000	-20.9283	0.0000000E+000	0.0000000E+000	0.0000000E+000	-69.0717	0.0000000E+000	0.0000000E+000	0.0000000E+000	69.0717	0.38243	20.9283	-8.5732e-06
126.171	60.5943	217.144	225.44	-74.4082	1114.04	-0.000217506	-0.025922	5.80914	5.38946	3	39	0.00661007	2.93207e-05	0	-0.00562998	0.619349	0.530388	15.2262	1.64587e-05	1.71896e-05	1.81731e-05	1.36389e-05	1.4016e-05	1.69387e-05	2.05046	1.44719	41.707	2.63611e-07	1.67574e-07	3.13086e-07	1.78564e-07	1.67801e-07	2.63288e-07	0.00119225	0.00427253	0.00443576	74.4082	5389.46	1503.93	5595.37	-15.5918	0.0000000E+000	0.0000000E+000	0.0000000E+000	15.5918	0.0000000E+000	0.0000000E+000	0.0000000E+000	-15.5918	0.0000000E+000	0.0000000E+000	0.0000000E+000	-74.4082	0.0000000E+000	0.0000000E+000	0.0000000E+000	74.4082	0.279051	15.5918	-7.83786e-06
6.31569	922.222	2496.83	2661.7	-69.7279	1129.01	-0.000184745	-0.0258197	10.0928	8.88118	3	41	0.00659738	2.47864e-06	0	-0.00573592	0.944438	0.6103	24.1994	3.11151e-05	1.90315e-05	2.0665e-05	1.30549e-05	2.81127e-05	2.25884e-05	0.676548	0.245416	12.7455	6.19064e-09	6.01431e-09	5.95921e-09	6.93225e-09	6.96178e-09	5.84196e-09	0.000130172	0.000352428	0.0003757	69.7279	8881.18	3280.33	9467.62	-20.2721	0.0000000E+000	0.0000000E+000	0.0000000E+000	20.2721	0.0000000E+000	0.0000000E+000	0.0000000E+000	-20.2721	0.0000000E+000	0.0000000E+000	0.0000000E+000	-69.7279	0.0000000E+000	0.0000000E+000	0.0000000E+000	69.7279	0.369358	20.2721	-9.83094e-06
0.316193	10585.8	19731.8	22392	-61.7871	1222.72	-0.00020673	-0.0257908	25.5095	19.8083	3	41	0.00658895	2.94254e-07	0	-0.00640646	0.303498	0.180511	4.44376	5.63017e-06	8.95748e-06	1.00316e-05	6.12068e-06	5.96134e-06	7.33817e-06	1.74	2.52675	29.2256	1.87667e-09	2.7708e-09	1.88393e-09	1.94028e-09	1.20326e-09	1.45326e-09	2.11124e-05	3.93532e-05	4.46588e-05	61.7871	19808.3	10626.9	22478.9	-28.2129	0.0000000E+000	0.0000000E+000	0.0000000E+000	28.2129	0.0000000E+000	0.0000000E+000	0.0000000E+000	-28.2129	0.0000000E+000	0.0000000E+000	0.0000000E+000	-61.7871	0.0000000E+000	0.0000000E+000	0.0000000E+000	61.7871	0.536484	28.2129	-0.000140438
0.0999518	24628.2	40797.9	47655.1	-58.8822	1427.3	-0.000232033	-0.0257676	39.0294	28.6054	3	41	0.00658591	1.38199e-07	0	-0.00786647	0.203694	0.0851637	2.649	4.18236e-06	7.98313e-06	3.35535e-06	6.31353e-06	1.93431e-06	5.95569e-06	2.70249	5.3773	27.8489	1.85449e-09	1.86897e-09	1.16093e-09	1.61292e-09	8.52269e-10	1.22615e-09	1.08446e-05	1.79646e-05	2.09841e-05	58.8822	28605.4	17268	33413.3	-31.1178	0.0000000E+000	0.0000000E+000	0.0000000E+000	31.1178	0.0000000E+000	0.0000000E+000	0.0000000E+000	-31.1178	0.0000000E+000	0.0000000E+000	0.0000000E+000	-58.8822	0.0000000E+000	0.0000000E+000	0.0000000E+000	58.8822	0.603663	31.1178	-0.000438936