File: Python/Data/RDE/240222-EIS-Fe2Fe3_5mM-HCl1M-0RPM-Ag_AgCl_BLF8-GC-RDE-5mVAmplitude_C15.mpt
EC-Lab ASCII FILE
Nb header lines : 66

Potentio Electrochemical Impedance Spectroscopy

Run on channel : 15 (SN 19485)
User :
Electrode connection : standard
Potential control : Ewe
Ewe ctrl range : min = -1.00 V, max = 1.00 V
Ewe,I filtering : <None>
Safety Limits :
	Do not start on E overload
Channel : Floating
Acquisition started on : 02/22/2024 15:05:17.607
Loaded Setting File :  NONE
Saved on :
	File : 240222-EIS-Fe2Fe3_5mM-HCl1M-0RPM-Ag_AgCl_BLF8-GC-RDE-5mVAmplitude_C15.mpr
	Directory : C:\Data\mathias\RDE-RPM-variation\
	Host : 192.168.0.1
Device : VMP-300 (SN 0826)
Address : USB
EC-Lab for windows v11.52 (software)
Internet server v11.52 (firmware)
Command interpretor v11.52 (firmware)
Electrode material :
Initial state :
Electrolyte :
Comments :
Cable : special
Electrode surface area : 0.001 cm²
Characteristic mass : 0.001 g
Equivalent Weight : 0.000 g/eq.
Density : 0.000 g/cm3
Volume (V) : 0.001 cm³
Record EIS quality indicators
Cycle Definition : Charge/Discharge alternance
Mode                Single sine
E (V)               0.0000
vs.                 Ref
tE (h:m:s)          0:01:0.0000
record              0
dI                  0.000
unit dI             mA
dt (s)              0.000
fi                  400.000
unit fi             kHz
ff                  100.000
unit ff             mHz
Nd                  10
Points              per decade
spacing             Logarithmic
Va (mV)             5.0
pw                  0.10
Na                  3
corr                0
E range min (V)     -1.000
E range max (V)     1.000
I Range             Auto
Bandwidth           8
nc cycles           2
goto Ns'            0
nr cycles           0
inc. cycle          1

freq/Hz	Re(Z)/Ohm	-Im(Z)/Ohm	|Z|/Ohm	Phase(Z)/deg	time/s	<Ewe>/V	<I>/mA	Cs/µF	Cp/µF	cycle number	I Range	|Ewe|/V	|I|/A	Ns	(Q-Qo)/mA.h	THD Ewe/%	NSD Ewe/%	NSR Ewe/%	|Ewe h2|/V	|Ewe h3|/V	|Ewe h4|/V	|Ewe h5|/V	|Ewe h6|/V	|Ewe h7|/V	THD I/%	NSD I/%	NSR I/%	|I h2|/A	|I h3|/A	|I h4|/A	|I h5|/A	|I h6|/A	|I h7|/A	Re(Y)/Ohm-1	Im(Y)/Ohm-1	|Y|/Ohm-1	Phase(Y)/deg	Re(C)/nF	Im(C)/nF	|C|/nF	Phase(C)/deg	Re(M)	Im(M)	|M|	Phase(M)/deg	Re(Permittivity)	Im(Permittivity)	|Permittivity|	Phase(Permittivity)/deg	Re(Resistivity)/Ohm.cm	Im(Resistivity)/Ohm.cm	|Resistivity|/Ohm.cm	Phase(Resistivity)/deg	Re(Conductivity)/mS/cm	Im(Conductivity)/mS/cm	|Conductivity|/mS/cm	Phase(Conductivity)/deg	Tan(Delta)	Loss Angle(Delta)/deg	dq/mA.h
399996	3.66247	1.5685	3.98421	-23.1836	62.9965	-0.000148684	-0.0301748	0.253677	0.0393155	1	38	0.00467674	0.00117382	0	-0.000608384	-1	-1	-1	0	0	0	0	0	0	-1	-1	-1	0	0	0	0	0	0	0.230723	0.0988098	0.250991	23.1836	39.3155	91.8026	99.8671	-66.8164	0.0000000E+000	0.0000000E+000	0.0000000E+000	66.8164	0.0000000E+000	0.0000000E+000	0.0000000E+000	-66.8164	0.0000000E+000	0.0000000E+000	0.0000000E+000	-23.1836	0.0000000E+000	0.0000000E+000	0.0000000E+000	23.1836	2.33502	66.8164	-0.000608384
20032.3	3.77692	2.22153	4.38182	-30.4634	77.9065	-0.000135561	-0.0305435	3.57634	0.919248	1	38	0.00519888	0.00118647	0	-0.000738021	1.52265	0.663162	25.9886	4.14838e-05	1.97378e-05	3.53775e-05	2.88571e-05	2.38871e-05	2.80404e-05	0.155942	0.0833747	2.43375	1.00321e-06	6.43047e-07	6.39581e-07	7.3346e-07	5.31851e-07	6.76251e-07	0.196711	0.115703	0.228216	30.4634	919.248	1562.86	1813.16	-59.5366	0.0000000E+000	0.0000000E+000	0.0000000E+000	59.5366	0.0000000E+000	0.0000000E+000	0.0000000E+000	-59.5366	0.0000000E+000	0.0000000E+000	0.0000000E+000	-30.4634	0.0000000E+000	0.0000000E+000	0.0000000E+000	30.4634	1.70015	59.5366	-1.16356e-05
1002.75	9.76204	33.0187	34.4315	-73.5296	93.1002	-0.000276634	-0.0245011	4.80692	4.42052	1	39	0.00501547	0.000145665	0	-0.000861392	1.70247	0.760107	25.7829	2.49044e-05	2.31051e-05	3.50572e-05	3.97581e-05	4.7426e-05	2.13998e-05	0.668799	0.340167	8.93553	3.96055e-07	5.80443e-07	2.80464e-07	4.79257e-07	2.27275e-07	2.01266e-07	0.00823431	0.0278514	0.0290431	73.5296	4420.52	1306.94	4609.68	-16.4704	0.0000000E+000	0.0000000E+000	0.0000000E+000	16.4704	0.0000000E+000	0.0000000E+000	0.0000000E+000	-16.4704	0.0000000E+000	0.0000000E+000	0.0000000E+000	-73.5296	0.0000000E+000	0.0000000E+000	0.0000000E+000	73.5296	0.295652	16.4704	-9.20256e-06
50.2089	112.105	399.838	415.256	-74.3378	107.858	-0.000250407	-0.0236754	7.92785	7.35006	1	40	0.00494562	1.19098e-05	0	-0.000958734	1.94246	0.964351	39.5526	3.84691e-05	3.90612e-05	4.94283e-05	4.05627e-05	1.68786e-05	2.75368e-05	1.23411	0.619296	21.394	7.0455e-08	5.06515e-08	8.40367e-08	6.07254e-08	1.05044e-08	3.61001e-08	0.000650117	0.00231874	0.00240815	74.3378	7350.06	2060.78	7633.49	-15.6622	0.0000000E+000	0.0000000E+000	0.0000000E+000	15.6622	0.0000000E+000	0.0000000E+000	0.0000000E+000	-15.6622	0.0000000E+000	0.0000000E+000	0.0000000E+000	-74.3378	0.0000000E+000	0.0000000E+000	0.0000000E+000	74.3378	0.280376	15.6622	-6.94667e-06
2.51368	1716.6	4471.63	4789.8	-68.9989	126.895	-0.000256816	-0.0239877	14.1594	12.3408	1	41	0.00490246	1.02352e-06	0	-0.00108373	1.12901	0.350512	19.7149	2.41622e-05	2.21649e-05	2.01701e-05	2.45384e-05	1.7455e-05	1.28557e-05	1.04897	0.417333	18.7841	4.05297e-09	3.9487e-09	3.77209e-09	5.22193e-09	4.49309e-09	3.27153e-09	7.48226e-05	0.000194909	0.000208777	68.9989	12340.8	4737.44	13218.8	-21.0011	0.0000000E+000	0.0000000E+000	0.0000000E+000	21.0011	0.0000000E+000	0.0000000E+000	0.0000000E+000	-21.0011	0.0000000E+000	0.0000000E+000	0.0000000E+000	-68.9989	0.0000000E+000	0.0000000E+000	0.0000000E+000	68.9989	0.383886	21.0011	-1.85781e-05
0.125939	21058.8	34436.8	40365.4	-58.5533	355.134	-0.000235033	-0.0232413	36.6976	26.7094	1	41	0.00490451	1.21503e-07	0	-0.00256617	0.150697	0.171854	4.17674	3.67122e-06	2.45796e-06	3.10861e-06	2.26749e-06	1.83396e-06	3.35729e-06	26.8038	114.628	52.1221	2.28139e-08	1.35761e-08	1.20668e-08	8.68179e-09	8.29125e-09	6.14021e-09	1.29245e-05	2.11351e-05	2.47737e-05	58.5533	26709.4	16333.4	31307.7	-31.4467	0.0000000E+000	0.0000000E+000	0.0000000E+000	31.4467	0.0000000E+000	0.0000000E+000	0.0000000E+000	-31.4467	0.0000000E+000	0.0000000E+000	0.0000000E+000	-58.5533	0.0000000E+000	0.0000000E+000	0.0000000E+000	58.5533	0.611521	31.4467	-0.000310827
31751	3.67595	1.55615	3.99177	-22.9445	431.889	-0.00017247	-0.0255013	3.22115	0.489534	2	38	0.00518361	0.00129858	0	-0.00307465	1.10337	1.03873	25.4688	2.58784e-05	2.32221e-05	1.71835e-05	2.27776e-05	1.66153e-05	2.08764e-05	0.129427	0.0542593	2.24836	9.47134e-07	4.50028e-07	9.73343e-07	5.16921e-07	3.65463e-07	4.47323e-07	0.230696	0.0976609	0.250516	22.9445	489.534	1156.38	1255.73	-67.0555	0.0000000E+000	0.0000000E+000	0.0000000E+000	67.0555	0.0000000E+000	0.0000000E+000	0.0000000E+000	-67.0555	0.0000000E+000	0.0000000E+000	0.0000000E+000	-22.9445	0.0000000E+000	0.0000000E+000	0.0000000E+000	22.9445	2.36221	67.0555	-7.17437e-06
1589.49	7.14898	22.4498	23.5606	-72.3363	446.911	-0.000257733	-0.0268103	4.46014	4.0495	2	38	0.00475715	0.000201911	0	-0.00317782	1.34692	0.826371	28.4663	2.31305e-05	2.05677e-05	1.6633e-05	2.6057e-05	3.96096e-05	1.75126e-05	0.754951	0.302589	14.2664	5.2034e-07	4.43132e-07	3.56786e-07	9.45392e-07	6.49657e-07	3.85949e-07	0.0128787	0.0404427	0.0424437	72.3363	4049.5	1289.53	4249.87	-17.6637	0.0000000E+000	0.0000000E+000	0.0000000E+000	17.6637	0.0000000E+000	0.0000000E+000	0.0000000E+000	-17.6637	0.0000000E+000	0.0000000E+000	0.0000000E+000	-72.3363	0.0000000E+000	0.0000000E+000	0.0000000E+000	72.3363	0.318443	17.6637	-8.43474e-06
79.6177	82.5162	282.051	293.873	-73.6927	461.77	-0.000292218	-0.0227555	7.08735	6.52856	2	40	0.00467782	1.59178e-05	0	-0.00327314	2.70357	0.876146	42.3637	4.76687e-05	4.45115e-05	2.37166e-05	6.90458e-05	3.23529e-05	7.00911e-05	1.01305	0.470731	16.1041	7.82442e-08	5.74941e-08	3.48432e-08	8.11437e-08	3.99422e-08	6.96543e-08	0.000955474	0.00326593	0.00340283	73.6927	6528.56	1909.98	6802.22	-16.3073	0.0000000E+000	0.0000000E+000	0.0000000E+000	16.3073	0.0000000E+000	0.0000000E+000	0.0000000E+000	-16.3073	0.0000000E+000	0.0000000E+000	0.0000000E+000	-73.6927	0.0000000E+000	0.0000000E+000	0.0000000E+000	73.6927	0.292558	16.3073	-6.70593e-06
3.98597	1117.05	3241.58	3428.65	-70.986	477.845	-0.000244824	-0.0230294	12.3177	11.0102	2	41	0.0045893	1.33851e-06	0	-0.00337437	1.82713	0.774421	27.0486	3.26343e-05	2.78265e-05	4.20937e-05	3.39884e-05	3.64294e-05	1.50245e-05	1.30343	0.517204	18.2115	6.46242e-09	5.82569e-09	8.77485e-09	8.31401e-09	6.58521e-09	3.41783e-09	9.50223e-05	0.000275747	0.00029166	70.986	11010.2	3794.13	11645.6	-19.014	0.0000000E+000	0.0000000E+000	0.0000000E+000	19.014	0.0000000E+000	0.0000000E+000	0.0000000E+000	-19.014	0.0000000E+000	0.0000000E+000	0.0000000E+000	-70.986	0.0000000E+000	0.0000000E+000	0.0000000E+000	70.986	0.3446	19.0139	-1.22153e-05
0.199573	12264.2	29699.9	32132.5	-67.5624	623.54	-0.000230258	-0.0226535	26.8511	22.9395	2	41	0.00459509	1.43004e-07	0	-0.0042938	0.369547	0.131368	5.59744	5.32017e-06	5.83434e-06	6.32134e-06	7.11063e-06	5.28703e-06	8.47159e-06	5.13879	14.9767	43.2986	4.57577e-09	1.49911e-09	3.33105e-09	2.26752e-09	1.92244e-09	1.13585e-09	1.18782e-05	2.87651e-05	3.11211e-05	67.5624	22939.5	9472.58	24818.3	-22.4376	0.0000000E+000	0.0000000E+000	0.0000000E+000	22.4376	0.0000000E+000	0.0000000E+000	0.0000000E+000	-22.4376	0.0000000E+000	0.0000000E+000	0.0000000E+000	-67.5624	0.0000000E+000	0.0000000E+000	0.0000000E+000	67.5624	0.412938	22.4376	-0.000193773
50326.6	3.6068	1.14689	3.78476	-17.6396	785.809	-0.00014203	-0.0250079	2.75741	0.253202	3	38	0.0051482	0.00136024	0	-0.00529976	1.21841	0.954261	26.2799	2.19599e-05	2.6642e-05	3.30927e-05	1.71883e-05	1.57464e-05	2.54877e-05	0.117161	0.0691566	2.09493	5.87306e-07	9.13252e-07	4.08523e-07	5.28742e-07	5.99828e-07	4.616e-07	0.251795	0.0800655	0.264218	17.6396	253.203	796.285	835.573	-72.3604	0.0000000E+000	0.0000000E+000	0.0000000E+000	72.3604	0.0000000E+000	0.0000000E+000	0.0000000E+000	-72.3604	0.0000000E+000	0.0000000E+000	0.0000000E+000	-17.6396	0.0000000E+000	0.0000000E+000	0.0000000E+000	17.6396	3.14486	72.3604	-7.52846e-06
2519.19	5.7334	15.0343	16.0904	-69.1254	800.912	-0.000294287	-0.0237232	4.20219	3.66866	3	38	0.00479454	0.000297975	0	-0.00539875	1.53678	0.620449	27.5021	2.73977e-05	2.7656e-05	3.67208e-05	2.72523e-05	2.7052e-05	2.07641e-05	0.640359	0.396492	9.74126	7.06942e-07	9.32995e-07	9.83348e-07	4.84187e-07	6.49614e-07	6.35602e-07	0.0221451	0.0580695	0.0621488	69.1254	3668.66	1399.06	3926.37	-20.8746	0.0000000E+000	0.0000000E+000	0.0000000E+000	20.8746	0.0000000E+000	0.0000000E+000	0.0000000E+000	-20.8746	0.0000000E+000	0.0000000E+000	0.0000000E+000	-69.1254	0.0000000E+000	0.0000000E+000	0.0000000E+000	69.1254	0.381355	20.8746	-7.40088e-06
126.171	56.5463	196.048	204.04	-73.9108	815.765	-0.000249978	-0.0219439	6.43424	5.94007	3	39	0.00489899	2.40099e-05	0	-0.0054909	1.31543	0.711512	26.3729	2.68433e-05	2.51881e-05	2.31295e-05	3.17276e-05	2.61806e-05	1.12053e-05	2.63123	1.69745	55.2024	3.23127e-07	1.83259e-07	2.74109e-07	3.05398e-07	1.91068e-07	1.4333e-07	0.00135823	0.00470903	0.00490099	73.9108	5940.07	1713.3	6182.22	-16.0892	0.0000000E+000	0.0000000E+000	0.0000000E+000	16.0892	0.0000000E+000	0.0000000E+000	0.0000000E+000	-16.0892	0.0000000E+000	0.0000000E+000	0.0000000E+000	-73.9108	0.0000000E+000	0.0000000E+000	0.0000000E+000	73.9108	0.28843	16.0892	-6.62326e-06
6.31569	741.118	2307.35	2423.45	-72.193	830.744	-0.000236892	-0.0219177	10.9216	9.90022	3	41	0.00491876	2.02966e-06	0	-0.00558055	1.82039	1.30584	36.4815	4.81125e-05	3.54978e-05	3.65177e-05	2.13422e-05	2.95185e-05	2.97818e-05	0.918988	0.684885	17.2794	8.31587e-09	7.89434e-09	4.81142e-09	8.22269e-09	7.2077e-09	4.77585e-09	0.000126188	0.000392867	0.000412635	72.193	9900.22	3179.94	10398.4	-17.807	0.0000000E+000	0.0000000E+000	0.0000000E+000	17.807	0.0000000E+000	0.0000000E+000	0.0000000E+000	-17.807	0.0000000E+000	0.0000000E+000	0.0000000E+000	-72.193	0.0000000E+000	0.0000000E+000	0.0000000E+000	72.193	0.321199	17.807	-8.30795e-06
0.316193	9389.99	20757.9	22783	-65.66	924.448	-0.000265447	-0.0217544	24.2485	20.1294	3	41	0.00489743	2.1496e-07	0	-0.00614684	0.373793	0.153884	6.78406	6.58197e-06	7.92712e-06	3.61733e-06	9.92547e-06	4.2797e-06	7.25208e-06	6.56304	21.2835	41.5087	1.00418e-08	6.41066e-09	5.25088e-09	3.69153e-09	2.90929e-09	2.94862e-09	1.80903e-05	3.99911e-05	4.38925e-05	65.66	20129.4	9105.69	22093.2	-24.34	0.0000000E+000	0.0000000E+000	0.0000000E+000	24.34	0.0000000E+000	0.0000000E+000	0.0000000E+000	-24.34	0.0000000E+000	0.0000000E+000	0.0000000E+000	-65.66	0.0000000E+000	0.0000000E+000	0.0000000E+000	65.66	0.452357	24.34	-0.000118151
0.0999518	18310.6	43172.6	46895.1	-67.0169	1129.03	-0.000240766	-0.0211997	36.8826	31.2595	3	41	0.00490326	1.04558e-07	0	-0.00736477	0.18329	0.146577	4.0861	4.3534e-06	2.7995e-06	3.31755e-06	2.54593e-06	4.50545e-06	2.04977e-06	26.1934	91.1013	51.1118	1.82986e-08	1.11064e-08	1.03195e-08	7.64138e-09	7.70655e-09	5.72459e-09	8.32624e-06	1.96315e-05	2.13242e-05	67.0169	31259.5	13258	33954.9	-22.9831	0.0000000E+000	0.0000000E+000	0.0000000E+000	22.9831	0.0000000E+000	0.0000000E+000	0.0000000E+000	-22.9831	0.0000000E+000	0.0000000E+000	0.0000000E+000	-67.0169	0.0000000E+000	0.0000000E+000	0.0000000E+000	67.0169	0.424127	22.9831	-0.000362698