File: Python/Data/RDE/240223-OCV-EIS-Fe2Fe3_5mM-HCl1M-2000RPM-Ag_AgCl_BLF8-GC-RDE-AllPreviousVariations_03_OCV_C15.mpt
EC-Lab ASCII FILE
Nb header lines : 47

Open Circuit Voltage

Run on channel : 15 (SN 19485)
User :
Electrode connection : standard
Potential control : Ewe
Ewe ctrl range : min = -1.00 V, max = 1.00 V
Ewe,I filtering : 50 kHz
Safety Limits :
	Do not start on E overload
Channel : Floating
Acquisition started on : 02/23/2024 12:36:41.987
Loaded Setting File :  C:\Data\mathias\RDE-RPM-variation\240222-CV-EIS-Fe2Fe3_5mM-HCl1M-0RPM-Ag_AgCl_BLF8-GC-RDE-DefaultSettings.mps
Saved on :
	File : 240223-OCV-EIS-Fe2Fe3_5mM-HCl1M-2000RPM-Ag_AgCl_BLF8-GC-RDE-AllPreviousVariations_03_OCV_C15.mpr
	Directory : C:\Data\mathias\RDE-RPM-variation\
	Host : 192.168.0.1
Device : VMP-300 (SN 0826)
Address : USB
EC-Lab for windows v11.52 (software)
Internet server v11.52 (firmware)
Command interpretor v11.52 (firmware)
Electrode material :
Initial state :
Electrolyte :
Comments :
Cable : special
Reference electrode : SCE Saturated Calomel Electrode (0.241 V)
Electrode surface area : 0.001 cm²
Characteristic mass : 0.001 g
Equivalent Weight : 0.000 g/eq.
Density : 0.000 g/cm3
Volume (V) : 0.001 cm³
Record EIS quality indicators
Cycle Definition : Charge/Discharge alternance
tR (h:m:s)          0:01:0.0000
dER/dt (mV/h)       1.0
record              <Ewe>
dER (mV)            0.00
dtR (s)             0.5000
E range min (V)     -1.000
E range max (V)     1.000

mode	error	time/s	<Ewe/V>
3	0	357.123	0.458873
3	0	357.623	0.459107
3	0	358.123	0.459264
3	0	358.623	0.459366
3	0	359.123	0.459441
3	0	359.623	0.459496
3	0	360.123	0.459543
3	0	360.623	0.459581
3	0	361.123	0.459612
3	0	361.623	0.45964
3	0	362.123	0.459664
3	0	362.623	0.459685
3	0	363.123	0.459701
3	0	363.623	0.459719
3	0	364.123	0.459732
3	0	364.623	0.459746
3	0	365.123	0.459761
3	0	365.623	0.45977
3	0	366.123	0.459777
3	0	366.623	0.459783
3	0	367.123	0.45979
3	0	367.623	0.459799
3	0	368.123	0.459806
3	0	368.623	0.459811
3	0	369.123	0.459818
3	0	369.623	0.45982
3	0	370.123	0.459828
3	0	370.623	0.459831
3	0	371.123	0.459829
3	0	371.623	0.459832
3	0	372.123	0.459833
3	0	372.623	0.459837
3	0	373.123	0.459841
3	0	373.623	0.459846
3	0	374.123	0.45985
3	0	374.623	0.459848
3	0	375.123	0.459849
3	0	375.623	0.459849
3	0	376.123	0.459853
3	0	376.623	0.459857
3	0	377.123	0.459857
3	0	377.623	0.459859
3	0	378.123	0.459859
3	0	378.623	0.459859
3	0	379.123	0.459861
3	0	379.623	0.459863
3	0	380.123	0.459866
3	0	380.623	0.459868
3	0	381.123	0.459868
3	0	381.623	0.459871
3	0	382.123	0.459875
3	0	382.623	0.459878
3	0	383.123	0.459877
3	0	383.623	0.459875
3	0	384.123	0.459875
3	0	384.623	0.45988
3	0	385.123	0.459879
3	0	385.623	0.459881
3	0	386.123	0.45988
3	0	386.623	0.459884
3	0	387.123	0.459882
3	0	387.623	0.459883
3	0	388.123	0.459885
3	0	388.623	0.459884
3	0	389.123	0.459885
3	0	389.623	0.459881
3	0	390.123	0.459881
3	0	390.623	0.459881
3	0	391.123	0.45988
3	0	391.623	0.459881
3	0	392.123	0.45988
3	0	392.623	0.459883
3	0	393.123	0.459881
3	0	393.623	0.459881
3	0	394.123	0.45988
3	0	394.623	0.459884
3	0	395.123	0.459884
3	0	395.623	0.45988
3	0	396.123	0.459882
3	0	396.623	0.459882
3	0	397.123	0.459886
3	0	397.623	0.459886
3	0	398.123	0.459888
3	0	398.623	0.459891
3	0	399.123	0.459889
3	0	399.623	0.459888
3	0	400.123	0.45989
3	0	400.623	0.459889
3	0	401.123	0.45989
3	0	401.623	0.459893
3	0	402.123	0.459892
3	0	402.623	0.459888
3	0	403.123	0.459888
3	0	403.623	0.45989
3	0	404.123	0.459889
3	0	404.623	0.45989
3	0	405.123	0.459891
3	0	405.623	0.459891
3	0	406.123	0.45989
3	0	406.623	0.459891
3	0	407.123	0.459892
3	0	407.623	0.459893
3	0	408.123	0.45989
3	0	408.623	0.45989
3	0	409.123	0.459888
3	0	409.623	0.45989
3	0	410.123	0.459889
3	0	410.623	0.45989
3	0	411.123	0.45989
3	0	411.623	0.459888
3	0	412.123	0.459886
3	0	412.623	0.459887
3	0	413.123	0.459885
3	0	413.623	0.459886
3	0	414.123	0.459888
3	0	414.623	0.459889
3	0	415.123	0.459887
3	0	415.623	0.459887
3	0	416.123	0.459887
3	0	416.623	0.459884
3	0	416.673	0.459889