File: Python/Data/RDE/240222-CV-EIS-Fe2Fe3_5mM-HCl1M-0RPM-Ag_AgCl_BLF8-GC-RDE-DefaultSettings_01_CV_C15.mpt
EC-Lab ASCII FILE
Nb header lines : 60

Cyclic Voltammetry

Run on channel : 15 (SN 19485)
User :
Electrode connection : standard
Potential control : Ewe
Ewe ctrl range : min = -1.00 V, max = 1.00 V
Ewe,I filtering : <None>
Safety Limits :
	Do not start on E overload
Channel : Floating
Acquisition started on : 02/22/2024 14:35:39.248
Loaded Setting File :  C:\Data\mathias\RDE-RPM-variation\240219-CV-EIS-Fe2Fe3_5mM-HCl1M-RPMtest-Ag_AgCl_BLF8-GC-RDE.mps
Saved on :
	File : 240222-CV-EIS-Fe2Fe3_5mM-HCl1M-0RPM-Ag_AgCl_BLF8-GC-RDE-DefaultSettings_01_CV_C15.mpr
	Directory : C:\Data\mathias\RDE-RPM-variation\
	Host : 192.168.0.1
Device : VMP-300 (SN 0826)
Address : USB
EC-Lab for windows v11.52 (software)
Internet server v11.52 (firmware)
Command interpretor v11.52 (firmware)
Electrode material :
Initial state :
Electrolyte :
Comments :
Cable : special
Electrode surface area : 0.001 cm²
Characteristic mass : 0.001 g
Equivalent Weight : 0.000 g/eq.
Density : 0.000 g/cm3
Volume (V) : 0.001 cm³
Record EIS quality indicators
Cycle Definition : Charge/Discharge alternance
Ei (V)              0.000
vs.                 Eoc
dE/dt               20.000
dE/dt unit          mV/s
E1 (V)              1.000
vs.                 Ref
Step percent        50
N                   10
E range min (V)     -1.000
E range max (V)     1.000
I Range             Auto
I Range min         Unset
I Range max         Unset
I Range init        Unset
Bandwidth           8
E2 (V)              0.000
vs.                 Ref
nc cycles           2
Reverse Scan        1
Ef (V)              0.000
vs.                 Eoc

mode	ox/red	error	control changes	counter inc.	time/s	control/V	Ewe/V	<I>/mA	cycle number	(Q-Qo)/C	I Range	step time/s	P/W
2	1	1	0	0	0.000000000000000E+000	0.463489	0.463199	0.000412757	1	0.0000000E+000	43	0.000000000000000E+000	1.91189e-07
2	1	0	1	0	2.5476	0.51444	0.514024	0.0126387	1	1.61859e-05	41	2.5338	6.4966e-06
2	1	0	1	0	5.0464	0.564416	0.563968	0.0301772	1	6.83637e-05	41	5.0326	1.7019e-05
2	1	0	1	0	7.5452	0.614392	0.614313	0.0527667	1	0.000172064	41	7.5314	3.24153e-05
2	1	0	1	0	10.044	0.664369	0.663951	0.0672321	1	0.000325652	41	10.0302	4.46388e-05
2	1	0	1	0	12.5428	0.714343	0.714006	0.0654962	1	0.000494187	41	12.529	4.67647e-05
2	1	0	1	0	15.0417	0.764321	0.764186	0.0575286	1	0.000648385	41	15.0279	4.39626e-05
2	1	0	1	0	17.5405	0.814297	0.814037	0.0503109	1	0.000782911	41	17.5267	4.09549e-05
2	1	0	1	0	20.0393	0.864274	0.863737	0.0450855	1	0.000901812	41	20.0255	3.8942e-05
2	1	0	1	0	22.5381	0.91425	0.913843	0.0415211	1	0.00100982	41	22.5243	3.79438e-05
2	1	0	1	0	25.0369	0.964226	0.96379	0.0391384	1	0.00111053	41	25.0231	3.77212e-05
2	1	0	1	0	27.5139	0.986216	0.985947	0.0354877	1	0.00120454	41	27.5001	3.4989e-05
2	1	0	1	0	30.0127	0.936239	0.935641	0.0324594	1	0.00128867	41	29.9989	3.03703e-05
2	1	0	1	0	32.5115	0.886263	0.885872	0.0305498	1	0.00136712	41	32.4977	2.70633e-05
2	1	0	1	0	35.0103	0.836287	0.83592	0.0287743	1	0.00144103	41	34.9965	2.40531e-05
2	1	0	1	0	37.5092	0.78631	0.785892	0.0266814	1	0.00151016	41	37.4954	2.09687e-05
2	1	0	1	0	40.008	0.736334	0.736192	0.0239141	1	0.00157328	41	39.9942	1.76054e-05
2	1	0	1	0	42.5068	0.686358	0.685873	0.0201383	1	0.0016283	41	42.493	1.38123e-05
2	1	0	1	0	45.0056	0.636382	0.636047	0.0151254	1	0.00167235	41	44.9918	9.62047e-06
2	1	0	1	0	47.5044	0.586406	0.586347	0.00926203	1	0.00170254	41	47.4906	5.43076e-06
2	1	0	1	0	50.0332	0.53583	0.535325	0.00313804	1	0.00171811	42	50.0194	1.67987e-06
2	0	0	1	0	52.592	0.484654	0.484396	-0.00413345	1	0.00171736	42	1.3294	-2.00223e-06
2	0	0	1	0	55.1208	0.434078	0.433992	-0.0156161	1	0.00169368	41	3.8582	-6.77726e-06
2	0	0	1	0	57.6196	0.384102	0.383361	-0.0356125	1	0.00163172	41	6.357	-1.36525e-05
2	0	0	1	0	60.1184	0.334126	0.33414	-0.0652047	1	0.00150686	41	8.8558	-2.17875e-05
2	0	0	1	0	62.6172	0.284149	0.284162	-0.0904632	1	0.00130886	41	11.3546	-2.57062e-05
2	0	0	1	0	65.116	0.234173	0.233959	-0.092717	1	0.00107474	41	13.8534	-2.1692e-05
2	0	0	1	0	67.6148	0.184197	0.184103	-0.0794574	1	0.000858339	41	16.3522	-1.46283e-05
2	0	0	1	0	70.1136	0.134223	0.134094	-0.0661124	1	0.000677039	41	18.851	-8.86527e-06
2	0	0	1	0	72.6125	0.0842446	0.083897	-0.0564004	1	0.000524481	41	21.3499	-4.73183e-06
2	0	0	1	0	75.1113	0.0342684	0.0338558	-0.0496364	1	0.000392299	41	23.8487	-1.68048e-06
2	0	0	1	1	77.5883	0.0152774	0.0152551	-0.0429438	1	0.000276657	41	26.3257	-6.55113e-07
2	0	0	1	1	80.0871	0.0652536	0.06498	-0.037837	1	0.000176302	41	28.8245	-2.45865e-06
2	0	0	1	1	82.5859	0.11523	0.114626	-0.0338439	1	8.69976e-05	41	31.3233	-3.87939e-06
2	0	0	1	1	85.0847	0.165206	0.165286	-0.0300309	1	7.34958e-06	41	33.8221	-4.96369e-06
2	0	0	1	1	87.5835	0.215182	0.214879	-0.0255924	1	-6.2135e-05	41	36.3209	-5.49927e-06
2	0	0	1	1	90.0823	0.265159	0.264863	-0.0201532	1	-0.000119393	41	38.8197	-5.33784e-06
2	0	0	1	1	92.5812	0.315137	0.315016	-0.013843	1	-0.000161862	41	41.3186	-4.36077e-06
2	0	0	1	1	95.08	0.365111	0.364999	-0.00719355	1	-0.000188036	41	43.8174	-2.62564e-06
2	1	0	1	1	97.6387	0.416287	0.416067	9.64452e-05	1	-0.000197305	43	0.000000000000000E+000	4.01277e-08
2	1	0	1	1	100.133	0.466163	0.465838	0.00981716	2	-0.000185886	42	2.4939	4.57321e-06
2	1	0	1	1	102.661	0.516739	0.516464	0.0265085	2	-0.000141778	41	5.0227	1.36907e-05
2	1	0	1	1	105.16	0.566715	0.566452	0.0525906	2	-4.466e-05	41	7.5215	2.97901e-05
2	1	0	1	1	107.659	0.616691	0.616428	0.0816204	2	0.000124493	41	10.0203	5.03131e-05
2	1	0	1	1	110.158	0.666668	0.666589	0.0933222	2	0.000348721	41	12.5191	6.22076e-05
2	1	0	1	1	112.657	0.716644	0.716246	0.0843693	2	0.000573406	41	15.0179	6.04292e-05
2	1	0	1	1	115.155	0.76662	0.766289	0.0709201	2	0.000767364	41	17.5167	5.43453e-05
2	1	0	1	1	117.654	0.816596	0.816274	0.0601043	2	0.000930537	41	20.0155	4.90616e-05
2	1	0	1	1	120.153	0.866573	0.86598	0.0525156	2	0.0010708	41	22.5143	4.54775e-05
2	1	0	1	1	122.652	0.916548	0.91622	0.0471774	2	0.00119513	41	25.0131	4.32249e-05
2	1	0	1	1	125.151	0.966525	0.966072	0.0435009	2	0.00130828	41	27.512	4.2025e-05
2	1	0	1	1	127.613	0.984217	0.983976	0.0391367	2	0.00141127	41	29.974	3.85096e-05
2	1	0	1	1	130.111	0.93424	0.933924	0.0355395	2	0.00150397	41	32.4728	3.31912e-05
2	1	0	1	1	132.61	0.884264	0.883847	0.0330342	2	0.00158933	41	34.9716	2.91972e-05
2	1	0	1	1	135.109	0.834288	0.83405	0.030721	2	0.00166873	41	37.4704	2.56229e-05
2	1	0	1	1	137.608	0.784312	0.784165	0.028202	2	0.00174216	41	39.9692	2.2115e-05
2	1	0	1	1	140.107	0.734335	0.733928	0.0250584	2	0.00180862	41	42.468	1.83911e-05
2	1	0	1	1	142.605	0.684359	0.684084	0.02106	2	0.00186618	41	44.9668	1.44068e-05
2	1	0	1	1	145.104	0.634383	0.634091	0.0157484	2	0.00191216	41	47.4656	9.98593e-06
2	1	0	1	1	147.603	0.584406	0.584079	0.00963748	2	0.00194364	41	49.9645	5.62905e-06
2	1	0	1	1	150.132	0.53383	0.533495	0.00319864	2	0.0019598	42	52.4933	1.70646e-06
2	0	0	1	1	152.691	0.482655	0.482419	-0.00465304	2	0.00195852	42	1.3793	-2.24472e-06
2	0	0	1	1	155.219	0.432079	0.431444	-0.0170018	2	0.00193246	41	3.9081	-7.33531e-06
2	0	0	1	1	157.718	0.382101	0.381909	-0.0381876	2	0.00186548	41	6.407	-1.45842e-05
2	0	0	1	1	160.217	0.332127	0.331565	-0.0679948	2	0.00173351	41	8.9058	-2.25447e-05
2	0	0	1	1	162.716	0.28215	0.281898	-0.0913221	2	0.00153047	41	11.4046	-2.57435e-05
2	0	0	1	1	165.215	0.232174	0.231839	-0.0913418	2	0.00129732	41	13.9034	-2.11766e-05
2	0	0	1	1	167.714	0.182198	0.182206	-0.0777755	2	0.00108506	41	16.4022	-1.41711e-05
2	0	0	1	1	170.212	0.132222	0.132007	-0.0648626	2	0.000907471	41	18.901	-8.56231e-06
2	0	0	1	1	172.711	0.0822456	0.0821722	-0.0555777	2	0.000757566	41	21.3998	-4.56694e-06
2	0	0	1	1	175.21	0.0322693	0.0318756	-0.0490523	2	0.000627235	41	23.8986	-1.56357e-06
2	0	0	1	0	177.687	0.0172765	0.0168213	-0.0424993	2	0.000513021	41	26.3756	-7.14895e-07
2	0	0	1	0	180.186	0.0672527	0.0672495	-0.0376285	2	0.00041349	41	28.8744	-2.5305e-06
2	0	0	1	0	182.685	0.117228	0.117319	-0.03378	2	0.000324581	41	31.3732	-3.96305e-06
2	0	0	1	0	185.183	0.167205	0.167076	-0.0299487	2	0.000245113	41	33.8721	-5.00369e-06
2	0	0	1	0	187.682	0.217181	0.216946	-0.025568	2	0.000175775	41	36.3709	-5.54686e-06
2	0	0	1	0	190.181	0.267158	0.267163	-0.0201115	2	0.000118631	41	38.8697	-5.37304e-06
2	0	0	1	0	192.68	0.317134	0.316808	-0.0137845	2	7.63145e-05	41	41.3685	-4.36702e-06
2	0	0	1	0	195.179	0.36711	0.366707	-0.00705631	2	5.03818e-05	41	43.8673	-2.5876e-06
2	1	0	1	0	197.737	0.418286	0.418087	0.000424525	2	4.16637e-05	43	0.1	1.77488e-07
2	1	0	1	0	200.231	0.468162	0.467933	0.0106346	3	5.4439e-05	42	2.5938	4.97628e-06
2	1	0	1	0	202.76	0.518738	0.518482	0.0281412	3	0.000101626	41	5.1226	1.45907e-05
2	1	0	1	0	205.259	0.568714	0.568487	0.0551183	3	0.000204066	41	7.6214	3.1334e-05
2	1	0	1	0	207.758	0.61869	0.618475	0.0836676	3	0.000379316	41	10.1202	5.17463e-05
2	1	0	1	0	210.256	0.668667	0.668046	0.0932724	3	0.000606063	41	12.619	6.23102e-05
2	1	0	1	0	212.755	0.718643	0.718283	0.0831191	3	0.000828792	41	15.1179	5.9703e-05
2	1	0	1	0	215.254	0.768619	0.768302	0.0697032	3	0.00101958	41	17.6167	5.35531e-05
2	1	0	1	0	217.753	0.818595	0.818334	0.0591709	3	0.00118007	41	20.1155	4.84215e-05
2	1	0	1	0	220.252	0.868572	0.868109	0.0517344	3	0.00131825	41	22.6143	4.49111e-05
2	1	0	1	0	222.751	0.918548	0.918386	0.0465265	3	0.00144083	41	25.1131	4.27293e-05
2	1	0	1	0	225.249	0.968524	0.968287	0.0429153	3	0.00155248	41	27.6119	4.15543e-05
2	1	0	1	0	227.711	0.982218	0.981995	0.0385988	3	0.00165387	41	30.0739	3.79039e-05
2	1	0	1	0	230.21	0.932241	0.931867	0.0352368	3	0.00174552	41	32.5727	3.2836e-05
2	1	0	1	0	232.709	0.882265	0.881867	0.0328289	3	0.0018303	41	35.0715	2.89507e-05
2	1	0	1	0	235.208	0.83229	0.83226	0.0305513	3	0.00190929	41	37.5703	2.54266e-05
2	1	0	1	0	237.707	0.782313	0.781948	0.0280845	3	0.00198235	41	40.0692	2.19606e-05
2	1	0	1	0	240.205	0.732336	0.731934	0.0249432	3	0.00204846	41	42.568	1.82568e-05
2	1	0	1	0	242.704	0.68236	0.682137	0.0209035	3	0.00210569	41	45.0668	1.4259e-05
2	1	0	1	0	245.203	0.632384	0.632039	0.0156116	3	0.00215136	41	47.5656	9.86717e-06
2	1	0	1	0	247.702	0.582408	0.58221	0.00948003	3	0.0021825	41	50.0644	5.51937e-06
2	1	0	1	0	250.231	0.531832	0.531385	0.00295512	3	0.00219821	42	52.5932	1.57031e-06
2	0	0	1	0	252.789	0.480656	0.48024	-0.00520179	3	0.00219599	42	1.5043	-2.49811e-06
2	0	0	1	0	255.318	0.43008	0.42996	-0.0182231	3	0.00216783	41	4.0331	-7.83519e-06
2	0	0	1	0	257.817	0.380104	0.379629	-0.040226	3	0.00209687	41	6.5319	-1.5271e-05
2	0	0	1	0	260.316	0.330128	0.329921	-0.0703648	3	0.00195917	41	9.0307	-2.32148e-05
2	0	0	1	0	262.815	0.280151	0.279837	-0.0923379	3	0.00175162	41	11.5295	-2.58396e-05
2	0	0	1	0	265.313	0.230175	0.22999	-0.0907675	3	0.00151814	41	14.0283	-2.08757e-05
2	0	0	1	0	267.812	0.180197	0.180056	-0.0768376	3	0.00130792	41	16.5272	-1.38351e-05
2	0	0	1	0	270.311	0.130223	0.129915	-0.0641675	3	0.00113233	41	19.026	-8.33629e-06
2	0	0	1	0	272.81	0.0802465	0.0799908	-0.0550757	3	0.000983885	41	21.5248	-4.40555e-06
2	0	0	1	0	275.309	0.0302703	0.0300122	-0.0486693	3	0.000854594	41	24.0236	-1.46067e-06
2	0	0	1	1	277.786	0.0192755	0.0189093	-0.0421904	3	0.000741313	41	26.5006	-7.97791e-07
2	0	0	1	1	280.285	0.0692517	0.0690978	-0.0374088	3	0.000642386	41	28.9994	-2.58487e-06
2	0	0	1	1	282.783	0.119228	0.11882	-0.0335447	3	0.000553984	41	31.4982	-3.98578e-06
2	0	0	1	1	285.282	0.169204	0.169073	-0.0297461	3	0.000475011	41	33.997	-5.02925e-06
2	0	0	1	1	287.781	0.21918	0.218897	-0.0253629	3	0.000406115	41	36.4958	-5.55186e-06
2	0	0	1	1	290.28	0.269157	0.268828	-0.0199206	3	0.000349438	41	38.9946	-5.35521e-06
2	0	0	1	1	292.779	0.319132	0.318881	-0.0135503	3	0.000307597	41	41.4934	-4.32094e-06
2	0	0	1	1	295.277	0.369109	0.368804	-0.00681935	3	0.000282181	41	43.9923	-2.51501e-06
2	1	0	1	1	297.836	0.420285	0.419819	0.000807466	3	0.000274199	43	0.2248	3.3899e-07
2	1	0	1	1	299.938	0.46234	0.462295	0.0094001	3	0.000284329	42	2.3268	4.34561e-06