File: Python/Data/RDE/240219-CV-EIS-Fe2Fe3_5mM-HCl1M-226RPM-Ag_AgCl_BLF8-GC-RDE_03_PEIS_C15.mpt
EC-Lab ASCII FILE
Nb header lines : 66

Potentio Electrochemical Impedance Spectroscopy

Run on channel : 15 (SN 19485)
User :
Electrode connection : standard
Potential control : Ewe
Ewe ctrl range : min = -1.00 V, max = 1.00 V
Ewe,I filtering : <None>
Safety Limits :
	Do not start on E overload
Channel : Floating
Acquisition started on : 02/19/2024 15:22:59.145
Loaded Setting File :  NONE
Saved on :
	File : 240219-CV-EIS-Fe2Fe3_5mM-HCl1M-226RPM-Ag_AgCl_BLF8-GC-RDE_03_PEIS_C15.mpr
	Directory : C:\Data\mathias\RDE-RPM-variation\
	Host : 192.168.0.1
Device : VMP-300 (SN 0826)
Address : USB
EC-Lab for windows v11.52 (software)
Internet server v11.52 (firmware)
Command interpretor v11.52 (firmware)
Electrode material :
Initial state :
Electrolyte :
Comments :
Cable : special
Electrode surface area : 0.001 cm²
Characteristic mass : 0.001 g
Equivalent Weight : 0.000 g/eq.
Density : 0.000 g/cm3
Volume (V) : 0.001 cm³
Record EIS quality indicators
Cycle Definition : Charge/Discharge alternance
Mode                Single sine
E (V)               0.0000
vs.                 Ref
tE (h:m:s)          0:00:0.0000
record              0
dI                  0.000
unit dI             mA
dt (s)              0.000
fi                  400.000
unit fi             kHz
ff                  100.000
unit ff             mHz
Nd                  10
Points              per decade
spacing             Logarithmic
Va (mV)             7.0
pw                  0.10
Na                  3
corr                0
E range min (V)     -1.000
E range max (V)     1.000
I Range             Auto
Bandwidth           8
nc cycles           2
goto Ns'            0
nr cycles           0
inc. cycle          1

freq/Hz	Re(Z)/Ohm	-Im(Z)/Ohm	|Z|/Ohm	Phase(Z)/deg	time/s	<Ewe>/V	<I>/mA	Cs/µF	Cp/µF	cycle number	I Range	|Ewe|/V	|I|/A	Ns	(Q-Qo)/mA.h	THD Ewe/%	NSD Ewe/%	NSR Ewe/%	|Ewe h2|/V	|Ewe h3|/V	|Ewe h4|/V	|Ewe h5|/V	|Ewe h6|/V	|Ewe h7|/V	THD I/%	NSD I/%	NSR I/%	|I h2|/A	|I h3|/A	|I h4|/A	|I h5|/A	|I h6|/A	|I h7|/A	Re(Y)/Ohm-1	Im(Y)/Ohm-1	|Y|/Ohm-1	Phase(Y)/deg	Re(C)/nF	Im(C)/nF	|C|/nF	Phase(C)/deg	Re(M)	Im(M)	|M|	Phase(M)/deg	Re(Permittivity)	Im(Permittivity)	|Permittivity|	Phase(Permittivity)/deg	Re(Resistivity)/Ohm.cm	Im(Resistivity)/Ohm.cm	|Resistivity|/Ohm.cm	Phase(Resistivity)/deg	Re(Conductivity)/mS/cm	Im(Conductivity)/mS/cm	|Conductivity|/mS/cm	Phase(Conductivity)/deg	Tan(Delta)	Loss Angle(Delta)/deg	dq/mA.h
399996	3.77494	1.29007	3.9893	-18.8677	362.417	-0.000161807	-0.187719	0.308425	0.0322542	1	38	0.00647521	0.00162315	0	-0.000127577	-1	-1	-1	0	0	0	0	0	0	-1	-1	-1	0	0	0	0	0	0	0.237202	0.0810629	0.250671	18.8677	32.2542	94.3805	99.7397	-71.1323	0.0000000E+000	0.0000000E+000	0.0000000E+000	71.1323	0.0000000E+000	0.0000000E+000	0.0000000E+000	-71.1323	0.0000000E+000	0.0000000E+000	0.0000000E+000	-18.8677	0.0000000E+000	0.0000000E+000	0.0000000E+000	18.8677	2.92614	71.1323	-0.000127577
20032.3	3.87356	2.36147	4.53663	-31.3681	377.329	-0.000117349	-0.183254	3.3644	0.911603	1	38	0.00727978	0.00160467	0	-0.000890066	0.664936	0.688149	13.8617	2.0784e-05	2.47538e-05	1.28588e-05	1.74489e-05	2.02278e-05	1.36529e-05	0.0855659	0.239089	1.74553	9.3874e-07	3.13637e-07	1.66101e-07	6.4612e-07	2.78367e-07	4.16387e-07	0.188211	0.11474	0.220428	31.3681	911.602	1495.32	1751.28	-58.6319	0.0000000E+000	0.0000000E+000	0.0000000E+000	58.6319	0.0000000E+000	0.0000000E+000	0.0000000E+000	-58.6319	0.0000000E+000	0.0000000E+000	0.0000000E+000	-31.3681	0.0000000E+000	0.0000000E+000	0.0000000E+000	31.3681	1.64032	58.6319	-5.77225e-05
1002.75	12.055	33.0967	35.2238	-69.9865	392.522	-0.000234115	-0.175415	4.79559	4.23389	1	39	0.00704972	0.000200141	0	-0.00164477	0.768272	0.405198	14.2247	1.95028e-05	1.63444e-05	2.41477e-05	2.61227e-05	1.97987e-05	1.55445e-05	0.563456	0.191327	6.21652	4.3809e-07	7.3081e-07	1.6314e-07	5.28612e-07	2.87931e-07	1.97414e-07	0.00971618	0.0266755	0.0283899	69.9865	4233.89	1542.14	4505.99	-20.0135	0.0000000E+000	0.0000000E+000	0.0000000E+000	20.0135	0.0000000E+000	0.0000000E+000	0.0000000E+000	-20.0135	0.0000000E+000	0.0000000E+000	0.0000000E+000	-69.9865	0.0000000E+000	0.0000000E+000	0.0000000E+000	69.9865	0.364236	20.0135	-6.43909e-05
50.2089	154.029	327.737	362.127	-64.8276	407.284	-0.000256931	-0.174907	9.67196	7.92214	1	40	0.00693763	1.9158e-05	0	-0.00235364	1.5225	0.972942	28.2384	3.33644e-05	4.3553e-05	4.57472e-05	1.98674e-05	4.30226e-05	5.64336e-05	0.836688	0.49378	13.5817	8.4644e-08	6.08746e-08	6.82339e-08	5.92935e-08	5.68811e-08	4.78006e-08	0.00117457	0.00249921	0.00276146	64.8276	7922.14	3723.22	8753.43	-25.1724	0.0000000E+000	0.0000000E+000	0.0000000E+000	25.1724	0.0000000E+000	0.0000000E+000	0.0000000E+000	-25.1724	0.0000000E+000	0.0000000E+000	0.0000000E+000	-64.8276	0.0000000E+000	0.0000000E+000	0.0000000E+000	64.8276	0.469976	25.1724	-5.1346e-05
2.51368	1456.19	2098.55	2554.29	-55.2431	426.031	-0.00023036	-0.173245	30.1712	20.3653	1	40	0.00690533	2.70343e-06	0	-0.00325149	0.465514	0.287196	10.595	7.13588e-06	1.90388e-05	9.54694e-06	1.16533e-05	1.43544e-05	9.97555e-06	3.70095	11.7807	36.9101	6.37188e-08	3.86001e-08	2.96835e-08	2.41451e-08	1.84746e-08	2.53684e-08	0.000223192	0.000321647	0.000391499	55.2431	20365.3	14131.5	24788	-34.7569	0.0000000E+000	0.0000000E+000	0.0000000E+000	34.7569	0.0000000E+000	0.0000000E+000	0.0000000E+000	-34.7569	0.0000000E+000	0.0000000E+000	0.0000000E+000	-55.2431	0.0000000E+000	0.0000000E+000	0.0000000E+000	55.2431	0.693904	34.7569	-0.000135209
0.125939	11783.3	-828.735	11812.4	4.02308	654.272	-0.000256783	-0.17381	-1524.91	-7.50591	1	40	0.00689619	5.83812e-07	0	-0.0142502	0.197432	0.113841	2.3261	4.18706e-06	6.48327e-06	3.62687e-06	6.93459e-06	4.50886e-06	4.64063e-06	222.923	246.815	234.089	5.65335e-07	4.84171e-07	1.56922e-07	1.3781e-07	1.49488e-07	1.0201e-07	8.44485e-05	-5.9394e-06	8.46571e-05	-4.02308	-7505.91	106722	106985	-94.0231	0.0000000E+000	0.0000000E+000	0.0000000E+000	94.0231	0.0000000E+000	0.0000000E+000	0.0000000E+000	-94.0231	0.0000000E+000	0.0000000E+000	0.0000000E+000	4.02308	0.0000000E+000	0.0000000E+000	0.0000000E+000	-4.02308	14.2184	85.9769	-0.00235235
31751	3.75177	1.71761	4.12625	-24.5989	730.535	-0.000168183	-0.176147	2.91836	0.505678	2	38	0.00725525	0.00175831	0	-0.0179235	0.663581	0.625303	13.7398	2.01263e-05	1.66516e-05	1.20295e-05	1.79275e-05	2.27216e-05	1.89457e-05	0.09583	0.129528	1.57938	7.97762e-07	5.89324e-07	4.69547e-07	1.0157e-06	2.58535e-07	4.62372e-07	0.220356	0.100882	0.242351	24.5989	505.678	1104.55	1214.8	-65.4011	0.0000000E+000	0.0000000E+000	0.0000000E+000	65.4011	0.0000000E+000	0.0000000E+000	0.0000000E+000	-65.4011	0.0000000E+000	0.0000000E+000	0.0000000E+000	-24.5989	0.0000000E+000	0.0000000E+000	0.0000000E+000	24.5989	2.1843	65.4011	-5.29719e-05
1589.49	8.92291	23.7721	25.3916	-69.4263	745.149	-0.000252998	-0.175532	4.21205	3.6919	2	38	0.00633116	0.000249341	0	-0.0186287	0.849337	0.540476	15.7198	2.29787e-05	2.0524e-05	2.18389e-05	1.23263e-05	2.59457e-05	2.22893e-05	0.735145	0.296143	11.3454	6.19899e-07	7.22212e-07	6.78252e-07	1.07499e-06	2.97507e-07	5.26529e-07	0.0138397	0.0368713	0.0393831	69.4263	3691.9	1385.76	3943.41	-20.5737	0.0000000E+000	0.0000000E+000	0.0000000E+000	20.5737	0.0000000E+000	0.0000000E+000	0.0000000E+000	-20.5737	0.0000000E+000	0.0000000E+000	0.0000000E+000	-69.4263	0.0000000E+000	0.0000000E+000	0.0000000E+000	69.4263	0.375352	20.5737	-5.34408e-05
79.6177	110.496	245.039	268.801	-65.7278	760.229	-0.000192099	-0.173554	8.15784	6.77932	2	40	0.00680579	2.53191e-05	0	-0.0193483	1.68328	0.794661	28.6704	6.03289e-05	5.40401e-05	5.05884e-05	1.3847e-05	4.30934e-05	3.38629e-05	0.795868	0.304495	10.1839	1.44828e-07	5.3599e-08	5.60708e-08	8.71338e-08	3.17146e-08	4.4182e-08	0.00152928	0.00339137	0.00372023	65.7278	6779.32	3057.03	7436.71	-24.2722	0.0000000E+000	0.0000000E+000	0.0000000E+000	24.2722	0.0000000E+000	0.0000000E+000	0.0000000E+000	-24.2722	0.0000000E+000	0.0000000E+000	0.0000000E+000	-65.7278	0.0000000E+000	0.0000000E+000	0.0000000E+000	65.7278	0.450934	24.2722	-5.09946e-05
3.98597	1157.79	1680.73	2040.92	-55.4385	776.016	-0.000237493	-0.172188	23.7568	16.1114	2	40	0.0067477	3.30621e-06	0	-0.0201034	0.818274	0.479645	14.8145	1.85929e-05	3.72015e-05	1.27996e-05	1.22782e-05	1.90247e-05	1.47991e-05	5.96765	16.1358	41.7394	1.15024e-07	9.73458e-08	5.61173e-08	6.46715e-08	3.92873e-08	4.19718e-08	0.000277958	0.000403504	0.000489976	55.4385	16111.4	11098.5	19564.1	-34.5615	0.0000000E+000	0.0000000E+000	0.0000000E+000	34.5615	0.0000000E+000	0.0000000E+000	0.0000000E+000	-34.5615	0.0000000E+000	0.0000000E+000	0.0000000E+000	-55.4385	0.0000000E+000	0.0000000E+000	0.0000000E+000	55.4385	0.688862	34.5615	-9.22962e-05
0.199573	3790.69	9380.35	10117.3	-67.9959	921.711	-0.000239572	-0.173719	85.0155	73.0811	2	40	0.00673988	6.66172e-07	0	-0.0271151	0.199921	0.112494	3.06897	3.47562e-06	8.36167e-06	6.0266e-06	4.10306e-06	3.87148e-06	3.06643e-06	118.198	181.59	121.503	3.90122e-07	2.27136e-07	1.96815e-07	1.50528e-07	9.23375e-08	4.41214e-08	3.70328e-05	9.16405e-05	9.88404e-05	67.9959	73081.1	29532.7	78822.8	-22.0041	0.0000000E+000	0.0000000E+000	0.0000000E+000	22.0041	0.0000000E+000	0.0000000E+000	0.0000000E+000	-22.0041	0.0000000E+000	0.0000000E+000	0.0000000E+000	-67.9959	0.0000000E+000	0.0000000E+000	0.0000000E+000	67.9959	0.404109	22.0041	-0.00148901
50326.6	3.70922	1.23906	3.9107	-18.4718	1083.33	-0.000125626	-0.178699	2.5523	0.256215	3	38	0.00722897	0.00184851	0	-0.0349092	0.85985	0.742684	13.935	1.80342e-05	2.61634e-05	2.91265e-05	1.55476e-05	3.2694e-05	1.61388e-05	0.0814094	0.145764	1.52257	5.9183e-07	8.80712e-07	5.3766e-07	5.1034e-07	2.92385e-07	5.35856e-07	0.242535	0.0810182	0.255709	18.4718	256.215	767.001	808.664	-71.5282	0.0000000E+000	0.0000000E+000	0.0000000E+000	71.5282	0.0000000E+000	0.0000000E+000	0.0000000E+000	-71.5282	0.0000000E+000	0.0000000E+000	0.0000000E+000	-18.4718	0.0000000E+000	0.0000000E+000	0.0000000E+000	18.4718	2.99358	71.5282	-5.67481e-05
2519.19	6.84199	16.2459	17.6279	-67.1615	1098.03	-0.000241907	-0.176743	3.8888	3.30296	3	38	0.00655914	0.000372089	0	-0.0356218	0.898115	0.586785	15.4458	1.633e-05	2.28171e-05	2.68168e-05	2.23244e-05	1.95024e-05	2.22657e-05	0.497496	0.258226	7.55181	8.61432e-07	8.23064e-07	8.53502e-07	6.75596e-07	3.60261e-07	5.42735e-07	0.0220182	0.052281	0.0567283	67.1615	3302.96	1391.05	3583.93	-22.8385	0.0000000E+000	0.0000000E+000	0.0000000E+000	22.8385	0.0000000E+000	0.0000000E+000	0.0000000E+000	-22.8385	0.0000000E+000	0.0000000E+000	0.0000000E+000	-67.1615	0.0000000E+000	0.0000000E+000	0.0000000E+000	67.1615	0.421152	22.8385	-5.35813e-05
126.171	76.7832	178.469	194.285	-66.721	1112.88	-0.000230312	-0.173729	7.06803	5.96408	3	39	0.00675985	3.47935e-05	0	-0.0363339	0.842173	0.418805	14.9063	1.09283e-05	2.13402e-05	2.92585e-05	1.15931e-05	1.31986e-05	3.67463e-05	1.88647	0.926369	35.783	1.20672e-07	2.99236e-07	2.42444e-07	2.68341e-07	1.84864e-07	3.73459e-07	0.00203417	0.00472806	0.00514708	66.721	5964.08	2565.95	6492.63	-23.279	0.0000000E+000	0.0000000E+000	0.0000000E+000	23.279	0.0000000E+000	0.0000000E+000	0.0000000E+000	-23.279	0.0000000E+000	0.0000000E+000	0.0000000E+000	-66.721	0.0000000E+000	0.0000000E+000	0.0000000E+000	66.721	0.430234	23.279	-5.27055e-05
6.31569	872.93	1206.29	1489.01	-54.1087	1127.57	-0.000221886	-0.172605	20.8904	13.7106	3	40	0.00673826	4.52533e-06	0	-0.0370333	1.17494	0.596648	20.3425	4.14491e-05	2.05342e-05	3.58753e-05	2.17959e-05	2.45378e-05	2.67273e-05	2.8849	3.41243	40.0508	7.3528e-08	4.79885e-08	5.10259e-08	3.04992e-08	5.02356e-08	4.62515e-08	0.000393718	0.000544074	0.000671588	54.1087	13710.6	9921.67	16924	-35.8913	0.0000000E+000	0.0000000E+000	0.0000000E+000	35.8913	0.0000000E+000	0.0000000E+000	0.0000000E+000	-35.8913	0.0000000E+000	0.0000000E+000	0.0000000E+000	-54.1087	0.0000000E+000	0.0000000E+000	0.0000000E+000	54.1087	0.723648	35.8913	-6.54864e-05
0.316193	799.197	5806.05	5860.79	-82.1625	1221.27	-0.000218181	-0.17435	86.6937	85.0816	3	40	0.00674214	1.15038e-06	0	-0.0415409	0.230935	0.143024	3.88618	5.41081e-06	7.13605e-06	3.61492e-06	7.07978e-06	8.37698e-06	3.28323e-06	26.8677	69.4929	50.7237	2.49221e-07	9.19182e-08	8.70824e-08	5.19435e-08	4.35965e-08	3.27796e-08	2.3267e-05	0.000169032	0.000170625	82.1625	85081.6	11711.4	85883.9	-7.83746	0.0000000E+000	0.0000000E+000	0.0000000E+000	7.83746	0.0000000E+000	0.0000000E+000	0.0000000E+000	-7.83746	0.0000000E+000	0.0000000E+000	0.0000000E+000	-82.1625	0.0000000E+000	0.0000000E+000	0.0000000E+000	82.1625	0.137649	7.83746	-0.000944585
0.0999518	12735.1	-5417.14	13839.4	23.0435	1425.85	-0.000219494	-0.173481	-293.941	-45.0368	3	40	0.00674121	4.87104e-07	0	-0.0513838	0.208666	0.0615557	2.21072	5.04929e-06	7.35611e-06	4.97703e-06	7.86468e-06	3.76614e-06	3.20217e-06	259.91	187.199	276.582	5.20638e-07	3.46066e-07	4.2039e-07	1.89634e-07	2.36861e-07	9.66663e-08	6.64921e-05	-2.82838e-05	7.22577e-05	-23.0435	-45036.8	105876	115057	-113.043	0.0000000E+000	0.0000000E+000	0.0000000E+000	113.043	0.0000000E+000	0.0000000E+000	0.0000000E+000	-113.043	0.0000000E+000	0.0000000E+000	0.0000000E+000	23.0435	0.0000000E+000	0.0000000E+000	0.0000000E+000	-23.0435	2.35089	66.9565	-0.00295547