File: Python/Data/RDE/240223-OCV-EIS-Fe2Fe3_5mM-HCl1M-625RPM-Ag_AgCl_BLF8-GC-RDE-1minRestVSEoc-3ppf-14p1mVAmplitude_05_OCV_C15.mpt
EC-Lab ASCII FILE
Nb header lines : 47

Open Circuit Voltage

Run on channel : 15 (SN 19485)
User :
Electrode connection : standard
Potential control : Ewe
Ewe ctrl range : min = -1.00 V, max = 1.00 V
Ewe,I filtering : 50 kHz
Safety Limits :
	Do not start on E overload
Channel : Floating
Acquisition started on : 02/23/2024 15:19:09.853
Loaded Setting File :  NONE
Saved on :
	File : 240223-OCV-EIS-Fe2Fe3_5mM-HCl1M-625RPM-Ag_AgCl_BLF8-GC-RDE-1minRestVSEoc-3ppf-14p1mVAmplitude_05_OCV_C15.mpr
	Directory : C:\Data\mathias\RDE-RPM-variation\
	Host : 192.168.0.1
Device : VMP-300 (SN 0826)
Address : USB
EC-Lab for windows v11.52 (software)
Internet server v11.52 (firmware)
Command interpretor v11.52 (firmware)
Electrode material :
Initial state :
Electrolyte :
Comments :
Cable : special
Reference electrode : SCE Saturated Calomel Electrode (0.241 V)
Electrode surface area : 0.001 cm²
Characteristic mass : 0.001 g
Equivalent Weight : 0.000 g/eq.
Density : 0.000 g/cm3
Volume (V) : 0.001 cm³
Record EIS quality indicators
Cycle Definition : Charge/Discharge alternance
tR (h:m:s)          0:01:0.0000
dER/dt (mV/h)       1.0
record              <Ewe>
dER (mV)            0.00
dtR (s)             0.5000
E range min (V)     -1.000
E range max (V)     1.000

mode	error	time/s	<Ewe/V>
3	0	962.343	0.458947
3	0	962.843	0.459437
3	0	963.343	0.459579
3	0	963.843	0.459633
3	0	964.343	0.459659
3	0	964.843	0.459674
3	0	965.343	0.459685
3	0	965.843	0.459692
3	0	966.343	0.459697
3	0	966.843	0.459699
3	0	967.343	0.459706
3	0	967.843	0.459705
3	0	968.343	0.459707
3	0	968.843	0.459707
3	0	969.343	0.45971
3	0	969.843	0.459708
3	0	970.343	0.459708
3	0	970.843	0.459709
3	0	971.343	0.459708
3	0	971.843	0.459712
3	0	972.343	0.459713
3	0	972.843	0.459712
3	0	973.343	0.459712
3	0	973.843	0.459713
3	0	974.343	0.459713
3	0	974.843	0.459713
3	0	975.343	0.459714
3	0	975.843	0.459713
3	0	976.343	0.459713
3	0	976.843	0.459714
3	0	977.343	0.459712
3	0	977.843	0.459711
3	0	978.343	0.459714
3	0	978.843	0.459715
3	0	979.343	0.459715
3	0	979.843	0.459715
3	0	980.343	0.459716
3	0	980.843	0.459719
3	0	981.343	0.459718
3	0	981.843	0.459717
3	0	982.343	0.459715
3	0	982.843	0.459719
3	0	983.343	0.459722
3	0	983.843	0.459718
3	0	984.343	0.459718
3	0	984.843	0.459721
3	0	985.343	0.459721
3	0	985.843	0.459721
3	0	986.343	0.459723
3	0	986.843	0.459726
3	0	987.343	0.459725
3	0	987.843	0.459724
3	0	988.343	0.459723
3	0	988.843	0.459721
3	0	989.343	0.459723
3	0	989.843	0.459722
3	0	990.343	0.459719
3	0	990.843	0.459722
3	0	991.343	0.459721
3	0	991.843	0.459721
3	0	992.343	0.459721
3	0	992.843	0.459722
3	0	993.343	0.459723
3	0	993.843	0.459724
3	0	994.343	0.459723
3	0	994.843	0.459722
3	0	995.343	0.459723
3	0	995.843	0.459724
3	0	996.343	0.459728
3	0	996.843	0.459726
3	0	997.343	0.459727
3	0	997.843	0.459729
3	0	998.343	0.459727
3	0	998.843	0.459729
3	0	999.343	0.459733
3	0	999.843	0.459735
3	0	1000.34	0.459734
3	0	1000.84	0.459734
3	0	1001.34	0.459733
3	0	1001.84	0.459732
3	0	1002.34	0.459729
3	0	1002.84	0.45973
3	0	1003.34	0.459729
3	0	1003.84	0.459729
3	0	1004.34	0.459728
3	0	1004.84	0.459724
3	0	1005.34	0.459724
3	0	1005.84	0.459727
3	0	1006.34	0.459729
3	0	1006.84	0.45973
3	0	1007.34	0.45973
3	0	1007.84	0.459731
3	0	1008.34	0.459732
3	0	1008.84	0.459733
3	0	1009.34	0.459735
3	0	1009.84	0.459735
3	0	1010.34	0.45973
3	0	1010.84	0.459729
3	0	1011.34	0.45973
3	0	1011.84	0.459726
3	0	1012.34	0.459726
3	0	1012.84	0.459729
3	0	1013.34	0.459733
3	0	1013.84	0.459735
3	0	1014.34	0.459732
3	0	1014.84	0.459734
3	0	1015.34	0.459733
3	0	1015.84	0.459735
3	0	1016.34	0.459734
3	0	1016.84	0.459736
3	0	1017.34	0.459737
3	0	1017.84	0.459737
3	0	1018.34	0.459735
3	0	1018.84	0.459731
3	0	1019.34	0.459727
3	0	1019.84	0.459728
3	0	1020.34	0.459727
3	0	1020.84	0.45973
3	0	1021.34	0.459733
3	0	1021.84	0.459734
3	0	1022	0.459736