File: Python/Data/RDE/240223-OCV-EIS-Fe2Fe3_5mM-HCl1M-0RPM-Ag_AgCl_BLF8-GC-RDE-1minRestVSEoc-3ppf-14p1mVAmplitude_05_OCV_C15.mpt
EC-Lab ASCII FILE
Nb header lines : 47

Open Circuit Voltage

Run on channel : 15 (SN 19485)
User :
Electrode connection : standard
Potential control : Ewe
Ewe ctrl range : min = -1.00 V, max = 1.00 V
Ewe,I filtering : 50 kHz
Safety Limits :
	Do not start on E overload
Channel : Floating
Acquisition started on : 02/23/2024 16:29:27.631
Loaded Setting File :  NONE
Saved on :
	File : 240223-OCV-EIS-Fe2Fe3_5mM-HCl1M-0RPM-Ag_AgCl_BLF8-GC-RDE-1minRestVSEoc-3ppf-14p1mVAmplitude_05_OCV_C15.mpr
	Directory : C:\Data\mathias\RDE-RPM-variation\
	Host : 192.168.0.1
Device : VMP-300 (SN 0826)
Address : USB
EC-Lab for windows v11.52 (software)
Internet server v11.52 (firmware)
Command interpretor v11.52 (firmware)
Electrode material :
Initial state :
Electrolyte :
Comments :
Cable : special
Reference electrode : SCE Saturated Calomel Electrode (0.241 V)
Electrode surface area : 0.001 cm²
Characteristic mass : 0.001 g
Equivalent Weight : 0.000 g/eq.
Density : 0.000 g/cm3
Volume (V) : 0.001 cm³
Record EIS quality indicators
Cycle Definition : Charge/Discharge alternance
tR (h:m:s)          0:01:0.0000
dER/dt (mV/h)       1.0
record              <Ewe>
dER (mV)            0.00
dtR (s)             0.5000
E range min (V)     -1.000
E range max (V)     1.000

mode	error	time/s	<Ewe/V>
3	0	964.894	0.461131
3	0	965.394	0.460143
3	0	965.894	0.45989
3	0	966.394	0.459778
3	0	966.894	0.459715
3	0	967.394	0.459672
3	0	967.894	0.459645
3	0	968.394	0.459627
3	0	968.894	0.459614
3	0	969.394	0.459598
3	0	969.894	0.459586
3	0	970.394	0.459574
3	0	970.894	0.459568
3	0	971.394	0.459561
3	0	971.894	0.459556
3	0	972.394	0.459552
3	0	972.894	0.459547
3	0	973.394	0.459543
3	0	973.894	0.45954
3	0	974.394	0.459538
3	0	974.894	0.459536
3	0	975.394	0.459536
3	0	975.894	0.459533
3	0	976.394	0.459531
3	0	976.894	0.45953
3	0	977.394	0.459528
3	0	977.894	0.459526
3	0	978.394	0.459522
3	0	978.894	0.459522
3	0	979.394	0.459519
3	0	979.894	0.459515
3	0	980.394	0.459517
3	0	980.894	0.459515
3	0	981.394	0.459515
3	0	981.894	0.459515
3	0	982.394	0.459512
3	0	982.894	0.459513
3	0	983.394	0.459511
3	0	983.894	0.459512
3	0	984.394	0.459513
3	0	984.894	0.45951
3	0	985.394	0.459509
3	0	985.894	0.459504
3	0	986.394	0.459505
3	0	986.894	0.459503
3	0	987.394	0.459503
3	0	987.894	0.459502
3	0	988.394	0.459506
3	0	988.894	0.459502
3	0	989.394	0.459503
3	0	989.894	0.459502
3	0	990.394	0.459499
3	0	990.894	0.459496
3	0	991.394	0.459497
3	0	991.894	0.459495
3	0	992.394	0.459496
3	0	992.894	0.459494
3	0	993.394	0.459491
3	0	993.894	0.459493
3	0	994.394	0.459491
3	0	994.894	0.459492
3	0	995.394	0.459494
3	0	995.894	0.459492
3	0	996.394	0.459492
3	0	996.894	0.459496
3	0	997.394	0.459495
3	0	997.894	0.459495
3	0	998.394	0.459492
3	0	998.894	0.459492
3	0	999.394	0.459491
3	0	999.894	0.459491
3	0	1000.39	0.459488
3	0	1000.89	0.459486
3	0	1001.39	0.459487
3	0	1001.89	0.459488
3	0	1002.39	0.459488
3	0	1002.89	0.459489
3	0	1003.39	0.459491
3	0	1003.89	0.459489
3	0	1004.39	0.459488
3	0	1004.89	0.459487
3	0	1005.39	0.45949
3	0	1005.89	0.459486
3	0	1006.39	0.459486
3	0	1006.89	0.459488
3	0	1007.39	0.459487
3	0	1007.89	0.459487
3	0	1008.39	0.459486
3	0	1008.89	0.459486
3	0	1009.39	0.459489
3	0	1009.89	0.45949
3	0	1010.39	0.459487
3	0	1010.89	0.459486
3	0	1011.39	0.459484
3	0	1011.89	0.459485
3	0	1012.39	0.459485
3	0	1012.89	0.459486
3	0	1013.39	0.459485
3	0	1013.89	0.459483
3	0	1014.39	0.459484
3	0	1014.89	0.459483
3	0	1015.39	0.459482
3	0	1015.89	0.459481
3	0	1016.39	0.459477
3	0	1016.89	0.459477
3	0	1017.39	0.459481
3	0	1017.89	0.459481
3	0	1018.39	0.459483
3	0	1018.89	0.459482
3	0	1019.39	0.459478
3	0	1019.89	0.459478
3	0	1020.39	0.459477
3	0	1020.89	0.459476
3	0	1021.39	0.459479
3	0	1021.89	0.459477
3	0	1022.39	0.459474
3	0	1022.89	0.459472
3	0	1023.39	0.459472
3	0	1023.89	0.459473
3	0	1024.39	0.459474
3	0	1024.55	0.459477