File: Python/Data/RDE/240223-OCV-EIS-Fe2Fe3_5mM-HCl1M-2000RPM-Ag_AgCl_BLF8-GC-RDE-1minRest-3ppf-14p1mVAmplitude_02_PEIS_C15.mpt
EC-Lab ASCII FILE
Nb header lines : 67

Potentio Electrochemical Impedance Spectroscopy

Run on channel : 15 (SN 19485)
User :
Electrode connection : standard
Potential control : Ewe
Ewe ctrl range : min = -1.00 V, max = 1.00 V
Ewe,I filtering : 50 kHz
Safety Limits :
	Do not start on E overload
Channel : Floating
Acquisition started on : 02/23/2024 14:08:11.747
Loaded Setting File :  NONE
Saved on :
	File : 240223-OCV-EIS-Fe2Fe3_5mM-HCl1M-2000RPM-Ag_AgCl_BLF8-GC-RDE-1minRest-3ppf-14p1mVAmplitude_02_PEIS_C15.mpr
	Directory : C:\Data\mathias\RDE-RPM-variation\
	Host : 192.168.0.1
Device : VMP-300 (SN 0826)
Address : USB
EC-Lab for windows v11.52 (software)
Internet server v11.52 (firmware)
Command interpretor v11.52 (firmware)
Electrode material :
Initial state :
Electrolyte :
Comments :
Cable : special
Reference electrode : SCE Saturated Calomel Electrode (0.241 V)
Electrode surface area : 0.001 cm²
Characteristic mass : 0.001 g
Equivalent Weight : 0.000 g/eq.
Density : 0.000 g/cm3
Volume (V) : 0.001 cm³
Record EIS quality indicators
Cycle Definition : Charge/Discharge alternance
Mode                Single sine
E (V)               0.0000
vs.                 Ref
tE (h:m:s)          0:01:0.0000
record              0
dI                  0.000
unit dI             mA
dt (s)              0.000
fi                  1.000
unit fi             MHz
ff                  100.000
unit ff             mHz
Nd                  10
Points              per decade
spacing             Logarithmic
Va (mV)             14.1
pw                  0.10
Na                  3
corr                0
E range min (V)     -1.000
E range max (V)     1.000
I Range             Auto
Bandwidth           8
nc cycles           0
goto Ns'            0
nr cycles           0
inc. cycle          1

freq/Hz	Re(Z)/Ohm	-Im(Z)/Ohm	|Z|/Ohm	Phase(Z)/deg	time/s	<Ewe>/V	<I>/mA	Cs/µF	Cp/µF	cycle number	I Range	|Ewe|/V	|I|/A	Ns	(Q-Qo)/mA.h	THD Ewe/%	NSD Ewe/%	NSR Ewe/%	|Ewe h2|/V	|Ewe h3|/V	|Ewe h4|/V	|Ewe h5|/V	|Ewe h6|/V	|Ewe h7|/V	THD I/%	NSD I/%	NSR I/%	|I h2|/A	|I h3|/A	|I h4|/A	|I h5|/A	|I h6|/A	|I h7|/A	Re(Y)/Ohm-1	Im(Y)/Ohm-1	|Y|/Ohm-1	Phase(Y)/deg	Re(C)/nF	Im(C)/nF	|C|/nF	Phase(C)/deg	Re(M)	Im(M)	|M|	Phase(M)/deg	Re(Permittivity)	Im(Permittivity)	|Permittivity|	Phase(Permittivity)/deg	Re(Resistivity)/Ohm.cm	Im(Resistivity)/Ohm.cm	|Resistivity|/Ohm.cm	Phase(Resistivity)/deg	Re(Conductivity)/mS/cm	Im(Conductivity)/mS/cm	|Conductivity|/mS/cm	Phase(Conductivity)/deg	Tan(Delta)	Loss Angle(Delta)/deg	dq/mA.h
1.00002e+06	3.55003	4.08875	5.41485	-49.0341	118.281	-0.000173439	-0.51249	0.0389244	0.0221937	1	38	0.0111289	0.00205525	0	-0.00867094	-1	-1	-1	0	0	0	0	0	0	-1	-1	-1	0	0	0	0	0	0	0.121076	0.13945	0.184677	49.0341	22.1937	19.2695	29.3918	-40.9659	0.0000000E+000	0.0000000E+000	0.0000000E+000	40.9659	0.0000000E+000	0.0000000E+000	0.0000000E+000	-40.9659	0.0000000E+000	0.0000000E+000	0.0000000E+000	-49.0341	0.0000000E+000	0.0000000E+000	0.0000000E+000	49.0341	0.868243	40.9659	-0.00867094
316230	3.45537	1.31351	3.69661	-20.8136	123.882	-0.000179945	-0.51331	0.383162	0.0483777	1	38	0.014537	0.00393253	0	-0.00946548	-1	-1	-1	0	0	0	0	0	0	-1	-1	-1	0	0	0	0	0	0	0.252864	0.0961231	0.270518	20.8136	48.3777	127.264	136.149	-69.1864	0.0000000E+000	0.0000000E+000	0.0000000E+000	69.1864	0.0000000E+000	0.0000000E+000	0.0000000E+000	-69.1864	0.0000000E+000	0.0000000E+000	0.0000000E+000	-20.8136	0.0000000E+000	0.0000000E+000	0.0000000E+000	20.8136	2.63063	69.1864	-0.000170069
100004	3.43029	0.924891	3.55279	-15.0895	129.619	-0.000179721	-0.511437	1.72073	0.116615	1	38	0.0145495	0.00409522	0	-0.010287	0.54417	0.248948	8.94771	3.15789e-05	3.79611e-05	2.52578e-05	2.82257e-05	2.77469e-05	2.35447e-05	0.0648094	0.0346234	0.696548	1.71986e-06	1.22179e-06	9.2525e-07	7.56404e-07	4.5362e-07	6.49395e-07	0.271764	0.0732742	0.281469	15.0895	116.615	432.51	447.955	-74.9105	0.0000000E+000	0.0000000E+000	0.0000000E+000	74.9105	0.0000000E+000	0.0000000E+000	0.0000000E+000	-74.9105	0.0000000E+000	0.0000000E+000	0.0000000E+000	-15.0895	0.0000000E+000	0.0000000E+000	0.0000000E+000	15.0895	3.70886	74.9105	-0.000168725
31621.1	3.64696	1.74745	4.04399	-25.6015	135.356	-0.000161397	-0.50947	2.8803	0.537807	1	38	0.0146524	0.00362325	0	-0.0110906	0.540583	0.207097	8.86074	2.51812e-05	2.38337e-05	4.31838e-05	2.65568e-05	2.64941e-05	3.16103e-05	0.0532206	0.0551089	0.797606	6.36987e-07	8.61568e-07	8.58967e-07	5.85355e-07	2.4115e-07	8.23983e-07	0.223003	0.106852	0.24728	25.6015	537.807	1122.41	1244.61	-64.3985	0.0000000E+000	0.0000000E+000	0.0000000E+000	64.3985	0.0000000E+000	0.0000000E+000	0.0000000E+000	-64.3985	0.0000000E+000	0.0000000E+000	0.0000000E+000	-25.6015	0.0000000E+000	0.0000000E+000	0.0000000E+000	25.6015	2.08702	64.3985	-0.000160749
10002.2	4.32671	4.49533	6.23927	-46.095	141.092	-0.00016822	-0.511548	3.53966	1.83746	1	38	0.0145867	0.00233789	0	-0.0118976	0.470795	0.228643	8.9633	4.13519e-05	1.63471e-05	2.68462e-05	1.83706e-05	2.87533e-05	2.11958e-05	0.165362	0.0460553	1.23429	3.45002e-06	9.26174e-07	7.3483e-07	6.12761e-07	8.19759e-07	5.58524e-07	0.111145	0.115477	0.160275	46.095	1837.46	1768.54	2550.29	-43.905	0.0000000E+000	0.0000000E+000	0.0000000E+000	43.905	0.0000000E+000	0.0000000E+000	0.0000000E+000	-43.905	0.0000000E+000	0.0000000E+000	0.0000000E+000	-46.095	0.0000000E+000	0.0000000E+000	0.0000000E+000	46.095	0.96249	43.905	-0.000162206
3163.04	6.59109	11.8217	13.535	-60.8586	146.65	-0.000302153	-0.511515	4.25632	3.24699	1	38	0.0139963	0.00103408	0	-0.0126686	0.59063	0.33284	9.21705	3.9089e-05	4.01654e-05	2.36412e-05	1.61537e-05	2.329e-05	4.40303e-05	0.92282	0.0953758	2.8297	9.13074e-06	2.21048e-06	7.06362e-07	1.18522e-06	6.02495e-07	5.17899e-07	0.0359783	0.0645306	0.0738826	60.8586	3246.99	1810.33	3717.56	-29.1414	0.0000000E+000	0.0000000E+000	0.0000000E+000	29.1414	0.0000000E+000	0.0000000E+000	0.0000000E+000	-29.1414	0.0000000E+000	0.0000000E+000	0.0000000E+000	-60.8586	0.0000000E+000	0.0000000E+000	0.0000000E+000	60.8586	0.55754	29.1414	-0.00015603
999.682	14.2057	29.4607	32.7068	-64.2571	152.433	-0.000303085	-0.505219	5.40401	4.38456	1	39	0.0142985	0.000437172	0	-0.0134759	0.60479	0.240446	8.58188	6.22562e-05	2.54128e-05	2.01912e-05	2.60498e-05	3.05301e-05	1.7895e-05	1.52046	0.0670862	2.98589	6.26156e-06	1.96056e-06	2.43863e-07	8.81469e-07	3.3829e-07	3.02529e-07	0.0132797	0.0275402	0.0305747	64.2571	4384.56	2114.2	4867.67	-25.743	0.0000000E+000	0.0000000E+000	0.0000000E+000	25.743	0.0000000E+000	0.0000000E+000	0.0000000E+000	-25.743	0.0000000E+000	0.0000000E+000	0.0000000E+000	-64.2571	0.0000000E+000	0.0000000E+000	0.0000000E+000	64.2571	0.482191	25.743	-0.000185043
316.316	36.857	66.1965	75.7656	-60.8917	157.961	-0.000268525	-0.504796	7.60088	5.80217	1	39	0.0129067	0.00017035	0	-0.0142453	0.550175	0.267203	9.83459	2.52768e-05	3.36583e-05	2.59988e-05	3.14694e-05	1.92523e-05	2.69915e-05	1.23937	0.191595	7.90767	1.88178e-06	6.14823e-07	1.86309e-07	4.8949e-07	2.02989e-07	2.34921e-07	0.00642061	0.0115316	0.0131986	60.8917	5802.17	3230.54	6640.9	-29.1083	0.0000000E+000	0.0000000E+000	0.0000000E+000	29.1083	0.0000000E+000	0.0000000E+000	0.0000000E+000	-29.1083	0.0000000E+000	0.0000000E+000	0.0000000E+000	-60.8917	0.0000000E+000	0.0000000E+000	0.0000000E+000	60.8917	0.556782	29.1083	-0.000153431
99.9682	90.9316	132.039	160.321	-55.4459	163.47	-0.000262933	-0.503344	12.0575	8.1786	1	39	0.0127401	7.94663e-05	0	-0.0150098	0.590133	0.208273	9.95523	2.71482e-05	2.18099e-05	1.97939e-05	3.37365e-05	3.63776e-05	2.70114e-05	1.22802	0.601906	16.7908	7.20333e-07	1.19594e-07	1.91631e-07	2.95513e-07	2.39735e-07	4.3898e-07	0.00353779	0.00513713	0.00623748	55.4459	8178.6	5632.37	9930.41	-34.5541	0.0000000E+000	0.0000000E+000	0.0000000E+000	34.5541	0.0000000E+000	0.0000000E+000	0.0000000E+000	-34.5541	0.0000000E+000	0.0000000E+000	0.0000000E+000	-55.4459	0.0000000E+000	0.0000000E+000	0.0000000E+000	55.4459	0.688671	34.5541	-0.00014854
31.6296	196.92	242.902	312.696	-50.9684	168.799	-0.000239483	-0.505529	20.7155	12.5001	1	39	0.0127277	4.0703e-05	0	-0.0157509	0.518032	0.177048	9.66311	2.17957e-05	3.98967e-05	1.66955e-05	1.92449e-05	1.52212e-05	2.84961e-05	2.05299	0.591054	31.3598	6.12521e-07	1.69523e-07	1.63059e-07	1.91505e-07	2.12212e-07	3.6916e-07	0.00201393	0.0024842	0.00319799	50.9684	12500.1	10133.8	16091.8	-39.0316	0.0000000E+000	0.0000000E+000	0.0000000E+000	39.0316	0.0000000E+000	0.0000000E+000	0.0000000E+000	-39.0316	0.0000000E+000	0.0000000E+000	0.0000000E+000	-50.9684	0.0000000E+000	0.0000000E+000	0.0000000E+000	50.9684	0.810697	39.0316	-0.000145027
9.99682	393.542	432.912	585.054	-47.7274	174.209	-0.000278666	-0.504587	36.7755	20.1357	1	39	0.0127146	2.17324e-05	0	-0.0165022	0.478835	0.142096	9.72051	1.74085e-05	1.12497e-05	2.78918e-05	3.15469e-05	2.85022e-05	1.70247e-05	4.27331	3.79943	60.0436	5.4482e-07	3.32091e-07	2.78896e-07	2.41448e-07	3.23158e-07	2.98908e-07	0.00114974	0.00126476	0.00170924	47.7274	20135.7	18304.5	27212.1	-42.2726	0.0000000E+000	0.0000000E+000	0.0000000E+000	42.2726	0.0000000E+000	0.0000000E+000	0.0000000E+000	-42.2726	0.0000000E+000	0.0000000E+000	0.0000000E+000	-47.7274	0.0000000E+000	0.0000000E+000	0.0000000E+000	47.7274	0.909056	42.2726	-0.000148264
3.16296	795.674	762.789	1102.24	-43.7912	182.65	-0.000240292	-0.504744	65.9664	31.5918	1	39	0.0127091	1.15302e-05	0	-0.0176745	0.258385	0.114858	4.49555	9.84082e-06	1.7556e-05	1.01777e-05	1.13646e-05	1.52464e-05	8.03652e-06	3.89367	4.31578	51.2824	2.3454e-07	2.05317e-07	9.86107e-08	1.53242e-07	1.4969e-07	9.49176e-08	0.000654906	0.000627839	0.000907239	43.7912	31591.8	32953.8	45650.8	-46.2088	0.0000000E+000	0.0000000E+000	0.0000000E+000	46.2088	0.0000000E+000	0.0000000E+000	0.0000000E+000	-46.2088	0.0000000E+000	0.0000000E+000	0.0000000E+000	-43.7912	0.0000000E+000	0.0000000E+000	0.0000000E+000	43.7912	1.04311	46.2088	-0.000322048
1.00006	1631.54	702.916	1776.52	-23.3078	204.76	-0.000243132	-0.503657	226.407	35.4451	1	39	0.012709	7.15389e-06	0	-0.0207633	0.157482	0.0592533	2.44189	3.86206e-06	1.13586e-05	4.64549e-06	9.89458e-06	8.40663e-06	5.91058e-06	8.29982	14.4269	45.4054	3.40118e-07	2.37463e-07	2.66431e-07	1.95077e-07	2.0219e-07	8.95456e-08	0.000516962	0.000222722	0.000562898	23.3078	35445.1	82271.9	89582.5	-66.6922	0.0000000E+000	0.0000000E+000	0.0000000E+000	66.6922	0.0000000E+000	0.0000000E+000	0.0000000E+000	-66.6922	0.0000000E+000	0.0000000E+000	0.0000000E+000	-23.3078	0.0000000E+000	0.0000000E+000	0.0000000E+000	23.3078	2.32111	66.6922	-0.000902973
0.316193	2064.41	308.56	2087.34	-8.50088	270.558	-0.000261506	-0.503812	1631.28	35.6469	1	39	0.0127123	6.09018e-06	0	-0.0299583	0.153891	0.0437816	1.27326	4.54348e-06	1.21695e-05	3.22581e-06	1.25471e-05	3.51432e-06	4.22583e-06	13.149	5.23186	32.0957	4.00935e-07	1.95604e-07	3.58197e-07	2.94724e-07	2.81969e-07	2.79277e-07	0.000473816	7.08196e-05	0.000479079	8.50088	35646.9	238494	241143	-81.4991	0.0000000E+000	0.0000000E+000	0.0000000E+000	81.4991	0.0000000E+000	0.0000000E+000	0.0000000E+000	-81.4991	0.0000000E+000	0.0000000E+000	0.0000000E+000	-8.50088	0.0000000E+000	0.0000000E+000	0.0000000E+000	8.50088	6.69046	81.4991	-0.00274259