File: Python/Data/RDE/240219-CV-EIS-Fe2Fe3_5mM-HCl1M-624RPM-Ag_AgCl_BLF8-GC-RDE_03_PEIS_C15.mpt
EC-Lab ASCII FILE
Nb header lines : 66

Potentio Electrochemical Impedance Spectroscopy

Run on channel : 15 (SN 19485)
User :
Electrode connection : standard
Potential control : Ewe
Ewe ctrl range : min = -1.00 V, max = 1.00 V
Ewe,I filtering : <None>
Safety Limits :
	Do not start on E overload
Channel : Floating
Acquisition started on : 02/19/2024 16:22:26.579
Loaded Setting File :  C:\Data\mathias\RDE-RPM-variation\240219-CV-EIS-Fe2Fe3_5mM-HCl1M-RPMtest-Ag_AgCl_BLF8-GC-RDE.mps
Saved on :
	File : 240219-CV-EIS-Fe2Fe3_5mM-HCl1M-624RPM-Ag_AgCl_BLF8-GC-RDE_03_PEIS_C15.mpr
	Directory : C:\Data\mathias\RDE-RPM-variation\
	Host : 192.168.0.1
Device : VMP-300 (SN 0826)
Address : USB
EC-Lab for windows v11.52 (software)
Internet server v11.52 (firmware)
Command interpretor v11.52 (firmware)
Electrode material :
Initial state :
Electrolyte :
Comments :
Cable : special
Electrode surface area : 0.001 cm²
Characteristic mass : 0.001 g
Equivalent Weight : 0.000 g/eq.
Density : 0.000 g/cm3
Volume (V) : 0.001 cm³
Record EIS quality indicators
Cycle Definition : Charge/Discharge alternance
Mode                Single sine
E (V)               0.0000
vs.                 Ref
tE (h:m:s)          0:00:0.0000
record              0
dI                  0.000
unit dI             mA
dt (s)              0.000
fi                  400.000
unit fi             kHz
ff                  100.000
unit ff             mHz
Nd                  10
Points              per decade
spacing             Logarithmic
Va (mV)             7.0
pw                  0.10
Na                  3
corr                0
E range min (V)     -1.000
E range max (V)     1.000
I Range             Auto
Bandwidth           8
nc cycles           2
goto Ns'            0
nr cycles           0
inc. cycle          1

freq/Hz	Re(Z)/Ohm	-Im(Z)/Ohm	|Z|/Ohm	Phase(Z)/deg	time/s	<Ewe>/V	<I>/mA	Cs/µF	Cp/µF	cycle number	I Range	|Ewe|/V	|I|/A	Ns	(Q-Qo)/mA.h	THD Ewe/%	NSD Ewe/%	NSR Ewe/%	|Ewe h2|/V	|Ewe h3|/V	|Ewe h4|/V	|Ewe h5|/V	|Ewe h6|/V	|Ewe h7|/V	THD I/%	NSD I/%	NSR I/%	|I h2|/A	|I h3|/A	|I h4|/A	|I h5|/A	|I h6|/A	|I h7|/A	Re(Y)/Ohm-1	Im(Y)/Ohm-1	|Y|/Ohm-1	Phase(Y)/deg	Re(C)/nF	Im(C)/nF	|C|/nF	Phase(C)/deg	Re(M)	Im(M)	|M|	Phase(M)/deg	Re(Permittivity)	Im(Permittivity)	|Permittivity|	Phase(Permittivity)/deg	Re(Resistivity)/Ohm.cm	Im(Resistivity)/Ohm.cm	|Resistivity|/Ohm.cm	Phase(Resistivity)/deg	Re(Conductivity)/mS/cm	Im(Conductivity)/mS/cm	|Conductivity|/mS/cm	Phase(Conductivity)/deg	Tan(Delta)	Loss Angle(Delta)/deg	dq/mA.h
399996	3.73305	1.30352	3.95409	-19.2484	362.417	-0.000102642	-0.296992	0.305243	0.0331734	1	38	0.00646303	0.00163452	0	-0.000188872	-1	-1	-1	0	0	0	0	0	0	-1	-1	-1	0	0	0	0	0	0	0.238765	0.0833731	0.252903	19.2484	33.1734	95.0024	100.628	-70.7516	0.0000000E+000	0.0000000E+000	0.0000000E+000	70.7516	0.0000000E+000	0.0000000E+000	0.0000000E+000	-70.7516	0.0000000E+000	0.0000000E+000	0.0000000E+000	-19.2484	0.0000000E+000	0.0000000E+000	0.0000000E+000	19.2484	2.86381	70.7516	-0.000188872
20032.3	3.88856	2.32814	4.53223	-30.9096	377.328	-0.000117424	-0.290801	3.41257	0.900481	1	38	0.00730386	0.00161154	0	-0.00140028	0.713887	0.641731	14.1512	1.77135e-05	2.46134e-05	1.88988e-05	1.01056e-05	2.22648e-05	1.53878e-05	0.12349	0.0669017	1.78638	9.24847e-07	7.97217e-07	5.79142e-07	6.22014e-07	5.91535e-07	1.09101e-06	0.189306	0.11334	0.220642	30.9096	900.481	1504.02	1752.98	-59.0904	0.0000000E+000	0.0000000E+000	0.0000000E+000	59.0904	0.0000000E+000	0.0000000E+000	0.0000000E+000	-59.0904	0.0000000E+000	0.0000000E+000	0.0000000E+000	-30.9096	0.0000000E+000	0.0000000E+000	0.0000000E+000	30.9096	1.67024	59.0904	-9.22427e-05
1002.75	12.5262	30.0543	32.5602	-67.3743	392.524	-0.000225428	-0.285472	5.28105	4.49944	1	39	0.00725675	0.000222871	0	-0.00260417	0.925083	0.579035	14.5594	1.81931e-05	2.15217e-05	3.41666e-05	3.189e-05	2.50276e-05	1.71122e-05	0.648265	0.23457	5.79469	1.03573e-06	7.56292e-07	3.55464e-07	3.31681e-07	2.82142e-07	2.24883e-07	0.0118153	0.0283486	0.0307123	67.3743	4499.44	1875.31	4874.6	-22.6257	0.0000000E+000	0.0000000E+000	0.0000000E+000	22.6257	0.0000000E+000	0.0000000E+000	0.0000000E+000	-22.6257	0.0000000E+000	0.0000000E+000	0.0000000E+000	-67.3743	0.0000000E+000	0.0000000E+000	0.0000000E+000	67.3743	0.416786	22.6257	-0.000105141
50.2089	150.966	256.56	297.681	-59.5264	407.065	-0.00021965	-0.28397	12.3552	9.17755	1	40	0.00648505	2.17852e-05	0	-0.00373909	1.73207	0.971051	30.464	3.46348e-05	2.4431e-05	3.28748e-05	2.89413e-05	4.42269e-05	7.72564e-05	0.634537	0.402507	12.0943	4.63466e-08	2.99121e-08	4.47236e-08	4.27505e-08	4.6115e-08	9.62154e-08	0.00170364	0.00289526	0.0033593	59.5264	9177.55	5400.3	10648.5	-30.4736	0.0000000E+000	0.0000000E+000	0.0000000E+000	30.4736	0.0000000E+000	0.0000000E+000	0.0000000E+000	-30.4736	0.0000000E+000	0.0000000E+000	0.0000000E+000	-59.5264	0.0000000E+000	0.0000000E+000	0.0000000E+000	59.5264	0.588424	30.4736	-8.34805e-05
2.51368	1174.59	1535.97	1933.61	-52.5942	425.812	-0.000189963	-0.284585	41.2219	26.0108	1	40	0.00644212	3.33165e-06	0	-0.00520708	0.571452	0.311646	11.9884	1.54804e-05	1.4224e-05	1.61238e-05	9.70294e-06	8.37616e-06	1.43362e-05	8.166	26.5133	32.307	2.23611e-07	1.01521e-07	7.82233e-08	5.78579e-08	4.73239e-08	3.18722e-08	0.000314156	0.000410813	0.000517167	52.5942	26010.8	19891	32744.7	-37.4058	0.0000000E+000	0.0000000E+000	0.0000000E+000	37.4058	0.0000000E+000	0.0000000E+000	0.0000000E+000	-37.4058	0.0000000E+000	0.0000000E+000	0.0000000E+000	-52.5942	0.0000000E+000	0.0000000E+000	0.0000000E+000	52.5942	0.764719	37.4058	-0.000220144
0.125939	6474.69	1160.8	6577.92	-10.1641	654.053	-0.00023043	-0.282937	1088.69	33.9032	1	40	0.0064319	9.77802e-07	0	-0.0231454	0.186034	0.125333	2.53579	2.74088e-06	6.51324e-06	1.40242e-06	5.38944e-06	3.333e-06	5.83949e-06	104.276	47.6722	139.397	4.12143e-07	4.17534e-07	4.51185e-07	4.54955e-07	2.58773e-07	1.73061e-07	0.000149638	2.68274e-05	0.000152024	10.1641	33903.2	189105	192120	-79.8359	0.0000000E+000	0.0000000E+000	0.0000000E+000	79.8359	0.0000000E+000	0.0000000E+000	0.0000000E+000	-79.8359	0.0000000E+000	0.0000000E+000	0.0000000E+000	-10.1641	0.0000000E+000	0.0000000E+000	0.0000000E+000	10.1641	5.57779	79.8359	-0.00383191
31751	3.73904	1.69981	4.10728	-24.447	730.313	-0.000126837	-0.283854	2.94892	0.505071	2	38	0.00727719	0.00177178	0	-0.0291441	0.818624	0.463565	13.9303	3.24385e-05	2.27622e-05	2.06072e-05	1.30061e-05	2.12336e-05	1.95921e-05	0.0942605	0.112518	1.60741	4.96957e-07	7.12085e-07	6.95777e-07	4.39414e-07	9.37362e-07	5.58159e-07	0.221641	0.10076	0.24347	24.447	505.071	1111	1220.41	-65.553	0.0000000E+000	0.0000000E+000	0.0000000E+000	65.553	0.0000000E+000	0.0000000E+000	0.0000000E+000	-65.553	0.0000000E+000	0.0000000E+000	0.0000000E+000	-24.447	0.0000000E+000	0.0000000E+000	0.0000000E+000	24.447	2.19969	65.553	-8.85368e-05
1589.49	9.39482	21.8165	23.7534	-66.7019	744.925	-0.00024172	-0.284143	4.58961	3.87165	2	38	0.0064775	0.000272698	0	-0.0302853	0.909914	0.299153	15.9454	1.67274e-05	1.26555e-05	2.60889e-05	2.42919e-05	2.53622e-05	2.76254e-05	0.66819	0.343304	10.2728	6.13639e-07	7.96603e-07	5.12771e-07	7.57709e-07	7.10576e-07	5.97281e-07	0.0166509	0.0386665	0.0420993	66.7019	3871.65	1667.24	4215.37	-23.2981	0.0000000E+000	0.0000000E+000	0.0000000E+000	23.2981	0.0000000E+000	0.0000000E+000	0.0000000E+000	-23.2981	0.0000000E+000	0.0000000E+000	0.0000000E+000	-66.7019	0.0000000E+000	0.0000000E+000	0.0000000E+000	66.7019	0.430629	23.2981	-8.69056e-05
79.6177	110.65	196.272	225.313	-60.5874	760.009	-0.000217841	-0.282538	10.1848	7.72849	2	40	0.00717575	3.18479e-05	0	-0.0314538	1.24943	0.952482	28.1327	4.60416e-05	2.71875e-05	2.88037e-05	3.12128e-05	4.33593e-05	2.71884e-05	0.679676	0.229135	8.5105	9.97542e-08	1.05015e-07	4.67667e-08	1.03337e-07	4.37543e-08	7.47101e-08	0.00217961	0.0038662	0.00443826	60.5874	7728.49	4357.02	8872.05	-29.4126	0.0000000E+000	0.0000000E+000	0.0000000E+000	29.4126	0.0000000E+000	0.0000000E+000	0.0000000E+000	-29.4126	0.0000000E+000	0.0000000E+000	0.0000000E+000	-60.5874	0.0000000E+000	0.0000000E+000	0.0000000E+000	60.5874	0.56376	29.4126	-0.000100512
3.98597	992.784	1013.72	1418.89	-45.5977	775.792	-0.000224268	-0.282386	39.3885	20.1051	2	40	0.00704467	4.96493e-06	0	-0.032681	0.758073	0.456032	14.3211	2.07368e-05	1.3842e-05	9.93688e-06	2.64235e-05	3.40712e-05	9.48103e-06	4.96314	16.8291	28.1972	1.9998e-07	7.58629e-08	5.25781e-08	7.36938e-08	5.09121e-08	2.17571e-08	0.000493127	0.000503525	0.000704778	45.5977	20105.1	19690	28140.9	-44.4023	0.0000000E+000	0.0000000E+000	0.0000000E+000	44.4023	0.0000000E+000	0.0000000E+000	0.0000000E+000	-44.4023	0.0000000E+000	0.0000000E+000	0.0000000E+000	-45.5977	0.0000000E+000	0.0000000E+000	0.0000000E+000	45.5977	0.979351	44.4023	-0.000149137
0.199573	3703.11	1973.03	4195.93	-28.0488	921.485	-0.000223349	-0.282089	404.189	89.3704	2	40	0.00704211	1.67832e-06	0	-0.0440839	0.22333	0.137769	3.09625	6.70217e-06	6.57989e-06	3.14063e-06	6.83074e-06	7.73614e-06	4.45315e-06	47.1983	48.1097	66.5106	4.02527e-07	3.14629e-07	4.45656e-07	1.69624e-07	2.50513e-07	1.80901e-07	0.000210334	0.000112067	0.000238326	28.0488	89370.3	167736	190059	-61.9512	0.0000000E+000	0.0000000E+000	0.0000000E+000	61.9512	0.0000000E+000	0.0000000E+000	0.0000000E+000	-61.9512	0.0000000E+000	0.0000000E+000	0.0000000E+000	-28.0488	0.0000000E+000	0.0000000E+000	0.0000000E+000	28.0488	1.87687	61.9512	-0.00241867
50326.6	3.63914	1.23484	3.84294	-18.7432	1083.11	-0.000141881	-0.28246	2.56101	0.264428	3	38	0.0072637	0.00189014	0	-0.0567069	0.672335	0.373526	14.1487	1.87742e-05	2.42283e-05	2.21689e-05	1.75873e-05	1.95954e-05	1.28479e-05	0.088179	0.0848617	1.51564	3.90604e-07	4.35804e-07	1.13451e-06	3.844e-07	7.19116e-07	5.25092e-07	0.246418	0.0836151	0.260218	18.7432	264.428	779.282	822.923	-71.2568	0.0000000E+000	0.0000000E+000	0.0000000E+000	71.2568	0.0000000E+000	0.0000000E+000	0.0000000E+000	-71.2568	0.0000000E+000	0.0000000E+000	0.0000000E+000	-18.7432	0.0000000E+000	0.0000000E+000	0.0000000E+000	18.7432	2.94705	71.2568	-9.04082e-05
2519.19	7.21234	15.1016	16.7355	-64.4714	1097.81	-0.000260696	-0.281678	4.18347	3.40648	3	38	0.00673841	0.000402642	0	-0.0578536	0.895646	0.616906	14.9927	1.73168e-05	3.2623e-05	1.04209e-05	2.28397e-05	2.38098e-05	2.98811e-05	0.683719	0.148413	7.04161	1.62223e-06	1.56758e-06	5.9499e-07	6.09562e-07	9.0678e-07	6.67009e-07	0.0257514	0.0539196	0.0597533	64.4714	3406.48	1626.9	3775.04	-25.5286	0.0000000E+000	0.0000000E+000	0.0000000E+000	25.5286	0.0000000E+000	0.0000000E+000	0.0000000E+000	-25.5286	0.0000000E+000	0.0000000E+000	0.0000000E+000	-64.4714	0.0000000E+000	0.0000000E+000	0.0000000E+000	64.4714	0.477588	25.5286	-8.64985e-05
126.171	77.0023	144.162	163.438	-61.8916	1112.66	-0.000254228	-0.281477	8.75005	6.80777	3	39	0.00690482	4.22474e-05	0	-0.0590044	0.755563	0.3821	15.1307	2.09516e-05	1.99023e-05	1.31069e-05	2.32794e-05	1.54686e-05	2.3016e-05	1.96386	0.941462	31.0142	4.36803e-07	4.15676e-07	1.2654e-07	3.80876e-07	1.94352e-07	2.31103e-07	0.0028827	0.0053969	0.00611854	61.8916	6807.77	3636.29	7718.05	-28.1084	0.0000000E+000	0.0000000E+000	0.0000000E+000	28.1084	0.0000000E+000	0.0000000E+000	0.0000000E+000	-28.1084	0.0000000E+000	0.0000000E+000	0.0000000E+000	-61.8916	0.0000000E+000	0.0000000E+000	0.0000000E+000	61.8916	0.534139	28.1084	-0.0001024
6.31569	664.05	737.674	992.534	-48.0066	1127.35	-0.000223079	-0.282483	34.1614	18.87	3	40	0.006909	6.96097e-06	0	-0.0601384	1.03031	0.467915	20.2478	3.66434e-05	1.15892e-05	2.11708e-05	3.66221e-05	2.52743e-05	2.8695e-05	1.56655	4.72302	26.6384	4.82773e-08	3.97227e-08	3.2982e-08	6.238e-08	1.60132e-08	3.46506e-08	0.000674077	0.000748813	0.00100752	48.0066	18870	16986.7	25389.5	-41.9934	0.0000000E+000	0.0000000E+000	0.0000000E+000	41.9934	0.0000000E+000	0.0000000E+000	0.0000000E+000	-41.9934	0.0000000E+000	0.0000000E+000	0.0000000E+000	-48.0066	0.0000000E+000	0.0000000E+000	0.0000000E+000	48.0066	0.900194	41.9934	-0.000107007
0.316193	3029.17	3847.22	4896.63	-51.7842	1221.05	-0.000230575	-0.280562	130.834	80.7644	3	40	0.0068934	1.40778e-06	0	-0.0674413	0.21324	0.106576	3.90806	4.4366e-06	7.43777e-06	4.97048e-06	6.18663e-06	3.30217e-06	6.0282e-06	51.5132	87.8625	77.1553	2.91192e-07	2.10662e-07	4.3339e-07	2.41773e-07	2.0891e-07	9.64528e-08	0.000126337	0.000160455	0.000204222	51.7842	80764.4	63591.3	102795	-38.2158	0.0000000E+000	0.0000000E+000	0.0000000E+000	38.2158	0.0000000E+000	0.0000000E+000	0.0000000E+000	-38.2158	0.0000000E+000	0.0000000E+000	0.0000000E+000	-51.7842	0.0000000E+000	0.0000000E+000	0.0000000E+000	51.7842	0.787368	38.2158	-0.00152996
0.0999518	5327.21	702.138	5373.29	-7.50843	1425.63	-0.000216904	-0.279983	2267.81	38.7233	3	40	0.00689183	1.28261e-06	0	-0.0833621	0.15489	0.0767053	2.34923	1.39798e-06	6.03621e-06	3.15197e-06	5.70538e-06	3.06563e-06	3.07947e-06	82.7324	41.0405	101.56	4.55337e-07	4.74535e-07	3.11312e-07	4.92106e-07	3.19323e-07	2.22956e-07	0.00018451	2.43188e-05	0.000186106	7.50843	38723.3	293799	296340	-82.4916	0.0000000E+000	0.0000000E+000	0.0000000E+000	82.4916	0.0000000E+000	0.0000000E+000	0.0000000E+000	-82.4916	0.0000000E+000	0.0000000E+000	0.0000000E+000	-7.50843	0.0000000E+000	0.0000000E+000	0.0000000E+000	7.50843	7.58713	82.4916	-0.00477527