File: Python/Data/RDE/240219-CV-EIS-Fe2Fe3_5mM-HCl1M-226RPM-Ag_AgCl_BLF8-GC-RDE_01_CV_C15.mpt
EC-Lab ASCII FILE
Nb header lines : 60

Cyclic Voltammetry

Run on channel : 15 (SN 19485)
User :
Electrode connection : standard
Potential control : Ewe
Ewe ctrl range : min = -1.00 V, max = 1.00 V
Ewe,I filtering : <None>
Safety Limits :
	Do not start on E overload
Channel : Floating
Acquisition started on : 02/19/2024 15:22:59.145
Loaded Setting File :  NONE
Saved on :
	File : 240219-CV-EIS-Fe2Fe3_5mM-HCl1M-226RPM-Ag_AgCl_BLF8-GC-RDE_01_CV_C15.mpr
	Directory : C:\Data\mathias\RDE-RPM-variation\
	Host : 192.168.0.1
Device : VMP-300 (SN 0826)
Address : USB
EC-Lab for windows v11.52 (software)
Internet server v11.52 (firmware)
Command interpretor v11.52 (firmware)
Electrode material :
Initial state :
Electrolyte :
Comments :
Cable : special
Electrode surface area : 0.001 cm²
Characteristic mass : 0.001 g
Equivalent Weight : 0.000 g/eq.
Density : 0.000 g/cm3
Volume (V) : 0.001 cm³
Record EIS quality indicators
Cycle Definition : Charge/Discharge alternance
Ei (V)              0.000
vs.                 Eoc
dE/dt               20.000
dE/dt unit          mV/s
E1 (V)              1.000
vs.                 Ref
Step percent        50
N                   10
E range min (V)     -1.000
E range max (V)     1.000
I Range             Auto
I Range min         Unset
I Range max         Unset
I Range init        Unset
Bandwidth           8
E2 (V)              0.000
vs.                 Ref
nc cycles           2
Reverse Scan        1
Ef (V)              0.000
vs.                 Eoc

mode	ox/red	error	control changes	counter inc.	time/s	control/V	Ewe/V	<I>/mA	cycle number	(Q-Qo)/C	I Range	step time/s	P/W
2	1	0	1	0	0.000000000000000E+000	0.46309	0.46273	0.000508379	1	0.0000000E+000	43	0.000000000000000E+000	2.35242e-07
2	1	0	1	0	2.4976	0.513041	0.512702	0.0141992	1	1.78734e-05	41	2.4838	7.27996e-06
2	1	0	1	0	4.9465	0.562017	0.561777	0.0344742	1	7.564e-05	41	4.9327	1.93668e-05
2	1	0	1	0	7.3953	0.610994	0.610682	0.0657791	1	0.000196518	41	7.3815	4.01701e-05
2	1	0	1	0	9.8441	0.659971	0.659727	0.102734	1	0.000403227	41	9.8303	6.77763e-05
2	1	0	1	0	12.323	0.709547	0.709187	0.134522	1	0.00069975	40	12.3092	9.54015e-05
2	1	0	1	0	14.7718	0.758524	0.758269	0.157455	1	0.00105864	40	14.758	0.000119393
2	1	0	1	0	17.2206	0.807501	0.807287	0.174295	1	0.0014694	40	17.2068	0.000140706
2	1	0	1	0	19.6695	0.856477	0.856228	0.182112	1	0.00190714	40	19.6557	0.000155929
2	1	0	1	0	22.1183	0.905454	0.905166	0.187497	1	0.00236067	40	22.1045	0.000169716
2	1	0	1	0	24.5671	0.954431	0.954011	0.190379	1	0.00282453	40	24.5533	0.000181623
2	1	0	1	0	26.9842	0.99721	0.996877	0.190125	1	0.00328757	40	26.9704	0.000189531
2	1	0	1	0	29.433	0.948234	0.947879	0.189731	1	0.00375261	40	29.4192	0.000179842
2	1	0	1	0	31.8818	0.899257	0.89896	0.182731	1	0.00420881	40	31.868	0.000164267
2	1	0	1	0	34.3307	0.85028	0.849945	0.174463	1	0.00464745	40	34.3169	0.000148284
2	1	0	1	0	36.7795	0.801304	0.801058	0.160791	1	0.00505974	40	36.7657	0.000128803
2	1	0	1	0	39.2284	0.752326	0.751976	0.1426	1	0.00543054	40	39.2146	0.000107231
2	1	0	1	0	41.6772	0.70335	0.703058	0.116386	1	0.0057498	40	41.6634	8.18261e-05
2	1	0	1	0	44.126	0.654373	0.653983	0.084999	1	0.00599638	40	44.1122	5.55879e-05
2	1	0	1	0	46.5749	0.605397	0.6051	0.0517237	1	0.00616293	40	46.5611	3.1298e-05
2	1	0	1	0	49.0537	0.55582	0.555418	0.0264574	1	0.00625756	41	49.0399	1.46949e-05
2	1	0	1	0	51.5025	0.506844	0.506453	0.00989395	1	0.00630028	41	51.4887	5.01082e-06
2	0	0	1	0	54.0413	0.456068	0.455802	-0.00260486	1	0.00630896	42	0.5297	-1.1873e-06
2	0	0	1	0	56.5201	0.406491	0.406147	-0.0158944	1	0.0062869	41	3.0085	-6.45548e-06
2	0	0	1	0	58.969	0.357515	0.357309	-0.0367318	1	0.00622446	41	5.4574	-1.31246e-05
2	0	0	1	0	61.4178	0.308538	0.308251	-0.0683719	1	0.00609765	41	7.9062	-2.10757e-05
2	0	0	1	0	63.8666	0.259561	0.259123	-0.104955	1	0.00588513	41	10.355	-2.71963e-05
2	0	0	1	0	66.3455	0.209985	0.209762	-0.134587	1	0.00558621	40	12.8339	-2.82311e-05
2	0	0	1	0	68.7943	0.161008	0.160684	-0.154127	1	0.00522914	40	15.2827	-2.47658e-05
2	0	0	1	0	71.2431	0.112031	0.111803	-0.163798	1	0.00483748	40	17.7315	-1.83131e-05
2	0	0	1	0	73.692	0.0630547	0.062983	-0.17151	1	0.00442619	40	20.1804	-1.08022e-05
2	0	0	1	0	76.1408	0.014078	0.0137926	-0.176105	1	0.00400028	40	22.6292	-2.42894e-06
2	0	0	1	1	78.5578	0.0342684	0.0341066	-0.170514	1	0.00357762	40	25.0462	-5.81566e-06
2	0	0	1	1	81.0066	0.0832442	0.0830477	-0.165698	1	0.00316778	40	27.495	-1.37609e-05
2	0	0	1	1	83.4555	0.132222	0.131938	-0.153473	1	0.00277664	40	29.9439	-2.02489e-05
2	0	0	1	1	85.9043	0.181198	0.18092	-0.138362	1	0.00241694	40	32.3927	-2.50324e-05
2	0	0	1	1	88.3532	0.230175	0.229908	-0.11383	1	0.00210725	40	34.8416	-2.61704e-05
2	0	0	1	1	90.802	0.279152	0.278888	-0.082506	1	0.00186531	40	37.2904	-2.301e-05
2	0	0	1	1	93.2508	0.328129	0.327825	-0.0501197	1	0.00170383	40	39.7392	-1.64305e-05
2	0	0	1	1	95.7296	0.377704	0.3771	-0.0247387	1	0.00161296	41	42.218	-9.32897e-06
2	0	0	1	1	98.1785	0.426682	0.42628	-0.00795915	1	0.00157447	41	44.6669	-3.39283e-06
2	1	0	1	1	100.632	0.475758	0.475504	0.00468323	2	0.00157074	42	0.8995	2.2269e-06
2	1	0	1	1	103.111	0.525335	0.525079	0.0194536	2	0.00159966	41	3.3783	1.02147e-05
2	1	0	1	1	105.56	0.574312	0.574003	0.0421734	2	0.00167319	41	5.8272	2.42076e-05
2	1	0	1	1	108.009	0.623288	0.623195	0.0755082	2	0.00181551	41	8.276	4.70564e-05
2	1	0	1	1	110.488	0.672865	0.672371	0.112015	2	0.00204876	40	10.7548	7.53158e-05
2	1	0	1	1	112.936	0.721841	0.721583	0.140509	2	0.00236053	40	13.2037	0.000101389
2	1	0	1	1	115.385	0.770818	0.770599	0.162011	2	0.002733	40	15.6525	0.000124845
2	1	0	1	1	117.834	0.819795	0.819373	0.176035	2	0.00314946	40	18.1013	0.000144238
2	1	0	1	1	120.283	0.868771	0.868497	0.183194	2	0.00359018	40	20.5502	0.000159104
2	1	0	1	1	122.732	0.917748	0.9174	0.189586	2	0.00405014	40	22.999	0.000173927
2	1	0	1	1	125.181	0.966725	0.966353	0.191422	2	0.0045175	40	25.4478	0.000184982
2	1	0	1	1	127.608	0.984716	0.984233	0.191178	2	0.00498443	40	27.8749	0.000188163
2	1	0	1	1	130.056	0.93574	0.935519	0.185592	2	0.00544547	40	30.3237	0.000173625
2	1	0	1	1	132.505	0.886762	0.886383	0.182791	2	0.00589494	40	32.7726	0.000162022
2	1	0	1	1	134.954	0.837786	0.83764	0.173129	2	0.00633069	40	35.2214	0.00014502
2	1	0	1	1	137.403	0.788809	0.788565	0.158503	2	0.00673651	40	37.6702	0.00012499
2	1	0	1	1	139.852	0.739833	0.739528	0.136561	2	0.00709643	40	40.1191	0.000100991
2	1	0	1	1	142.301	0.690856	0.690678	0.109364	2	0.00739988	40	42.5679	7.55353e-05
2	1	0	1	1	144.749	0.641879	0.641612	0.0764572	2	0.00762789	40	45.0167	4.90559e-05
2	1	0	1	1	147.198	0.592903	0.592631	0.044908	2	0.00777533	40	47.4656	2.66139e-05
2	1	0	1	1	149.677	0.543326	0.542941	0.0216858	2	0.0078556	41	49.9444	1.17741e-05
2	1	0	1	1	152.126	0.49435	0.494003	0.00666265	2	0.00788885	41	52.3932	3.29137e-06
2	0	0	1	1	154.605	0.444773	0.444383	-0.00537716	2	0.00789024	42	1.0994	-2.38952e-06
2	0	0	1	1	157.084	0.395197	0.394945	-0.0200581	2	0.00785991	41	3.5783	-7.92184e-06
2	0	0	1	1	159.532	0.34622	0.346149	-0.0435481	2	0.00778416	41	6.0271	-1.50741e-05
2	0	0	1	1	161.981	0.297243	0.296965	-0.0775124	2	0.00763763	41	8.4759	-2.30184e-05
2	0	0	1	1	164.46	0.247667	0.247577	-0.113538	2	0.00739958	40	10.9548	-2.81095e-05
2	0	0	1	1	166.909	0.19869	0.198225	-0.14091	2	0.00708574	40	13.4036	-2.79319e-05
2	0	0	1	1	169.358	0.149713	0.149493	-0.157577	2	0.00671781	40	15.8524	-2.35566e-05
2	0	0	1	1	171.807	0.100737	0.100465	-0.166082	2	0.00632007	40	18.3013	-1.66853e-05
2	0	0	1	1	174.255	0.0517601	0.0515045	-0.171574	2	0.00590561	40	20.7501	-8.83682e-06
2	0	0	1	1	176.704	0.00278335	0.00247836	-0.174868	2	0.00547817	40	23.1989	-4.33387e-07
2	0	0	1	0	179.131	0.0457629	0.0453052	-0.171109	2	0.00505879	40	25.6259	-7.75214e-06
2	0	0	1	0	181.58	0.0947396	0.0944085	-0.163288	2	0.00465088	40	28.0748	-1.54158e-05
2	0	0	1	0	184.029	0.143716	0.143127	-0.151469	2	0.00426267	40	30.5236	-2.16793e-05
2	0	0	1	0	186.478	0.192693	0.192568	-0.134226	2	0.00391221	40	32.9724	-2.58477e-05
2	0	0	1	0	188.927	0.24167	0.241524	-0.108116	2	0.00361427	40	35.4213	-2.61127e-05
2	0	0	1	0	191.375	0.290646	0.290393	-0.0752085	2	0.00338941	40	37.8701	-2.184e-05
2	0	0	1	0	193.854	0.340223	0.339869	-0.0435919	2	0.00324362	41	40.3489	-1.48155e-05
2	0	0	1	0	196.303	0.3892	0.389062	-0.0203581	2	0.00316735	41	42.7978	-7.92057e-06
2	0	0	1	0	198.752	0.438176	0.437905	-0.00490257	2	0.00313778	41	45.2466	-2.14686e-06
2	1	0	1	0	201.206	0.487253	0.486977	0.00775286	3	0.00314124	42	1.4742	3.77546e-06
2	1	0	1	0	203.685	0.536829	0.53661	0.0239713	3	0.00317928	41	3.9531	1.28633e-05
2	1	0	1	0	206.133	0.585806	0.585601	0.0493183	3	0.0032669	41	6.4019	2.88808e-05
2	1	0	1	0	208.582	0.634783	0.634479	0.0844464	3	0.00342986	41	8.8507	5.35795e-05
2	1	0	1	0	211.061	0.684359	0.683984	0.119526	3	0.00368418	40	11.3296	8.17537e-05
2	1	0	1	0	213.51	0.733336	0.732917	0.147829	3	0.00401262	40	13.7784	0.000108347
2	1	0	1	0	215.959	0.782313	0.782051	0.164539	3	0.00439669	40	16.2272	0.000128678
2	1	0	1	0	218.408	0.831289	0.830991	0.176575	3	0.00482131	40	18.6761	0.000146732
2	1	0	1	0	220.856	0.880266	0.879958	0.186385	3	0.00526772	40	21.1249	0.000164011
2	1	0	1	0	223.305	0.929243	0.929058	0.188384	3	0.0057274	40	23.5737	0.000175019
2	1	0	1	0	225.754	0.978219	0.977873	0.192362	3	0.00619646	40	26.0226	0.000188106
2	1	0	1	0	228.181	0.973222	0.972833	0.190447	3	0.00666211	40	28.4496	0.000185273
2	1	0	1	0	230.63	0.924245	0.923951	0.185743	3	0.00712091	40	30.8984	0.000171617
2	1	0	1	0	233.079	0.875268	0.875012	0.178393	3	0.00756771	40	33.3473	0.000156096
2	1	0	1	0	235.528	0.826292	0.826008	0.169276	3	0.0079947	40	35.7961	0.000139824
2	1	0	1	0	237.977	0.777314	0.777031	0.154225	3	0.00839231	40	38.245	0.000119837
2	1	0	1	0	240.425	0.728338	0.728038	0.131335	3	0.0087431	40	40.6938	9.56172e-05
2	1	0	1	0	242.874	0.679362	0.679019	0.102556	3	0.00903117	40	43.1426	6.96377e-05
2	1	0	1	0	245.323	0.630385	0.630268	0.0689797	3	0.00924125	40	45.5915	4.34757e-05
2	1	0	1	0	247.802	0.580808	0.580466	0.0385465	3	0.00937253	41	48.0703	2.23749e-05
2	1	0	1	0	250.251	0.531832	0.531405	0.0177104	3	0.00943925	41	50.5191	9.41138e-06
2	1	0	1	0	252.729	0.482255	0.482072	0.00359973	3	0.00946452	42	52.9979	1.73533e-06
2	0	0	1	0	255.178	0.433279	0.433024	-0.00833374	3	0.00945892	42	1.6742	-3.60871e-06
2	0	0	1	0	257.657	0.383702	0.383268	-0.0247443	3	0.00941946	41	4.153	-9.48371e-06
2	0	0	1	0	260.106	0.334725	0.334543	-0.0509581	3	0.009329	41	6.6018	-1.70477e-05
2	0	0	1	0	262.555	0.285749	0.285266	-0.0863561	3	0.0091618	41	9.0507	-2.46344e-05
2	0	0	1	0	265.034	0.236172	0.235871	-0.120458	3	0.00890355	40	11.5295	-2.84126e-05
2	0	0	1	0	267.482	0.187196	0.187073	-0.14463	3	0.00857637	40	13.9783	-2.70564e-05
2	0	0	1	0	269.931	0.138219	0.138059	-0.160195	3	0.00819975	40	16.4272	-2.21163e-05
2	0	0	1	0	272.38	0.0892422	0.0889948	-0.167592	3	0.00779533	40	18.876	-1.49148e-05
2	0	0	1	0	274.829	0.0402655	0.040128	-0.170666	3	0.00737874	40	21.3248	-6.84848e-06
2	0	0	1	1	277.256	0.00828073	0.00800156	-0.173912	3	0.00695588	40	23.7518	-1.39157e-06
2	0	0	1	1	279.705	0.0572574	0.0569137	-0.167818	3	0.00653649	40	26.2007	-9.55111e-06
2	0	0	1	1	282.154	0.106234	0.105999	-0.160912	3	0.00613594	40	28.6495	-1.70566e-05
2	0	0	1	1	284.602	0.155211	0.15485	-0.14948	3	0.00575472	40	31.0983	-2.31469e-05
2	0	0	1	1	287.051	0.204188	0.203918	-0.129579	3	0.00541181	40	33.5472	-2.64234e-05
2	0	0	1	1	289.5	0.253164	0.253052	-0.101039	3	0.0051277	40	35.996	-2.55681e-05
2	0	0	1	1	291.949	0.302141	0.302034	-0.0677183	3	0.0049211	40	38.4448	-2.04532e-05
2	0	0	1	1	294.428	0.351717	0.351573	-0.0373928	3	0.00479259	41	40.9237	-1.31463e-05
2	0	0	1	1	296.877	0.400694	0.400551	-0.0161833	3	0.00472898	41	43.3725	-6.48224e-06
2	0	0	1	1	299.355	0.45027	0.450076	-0.00175645	3	0.00470782	42	45.8513	-7.90536e-07
2	1	0	1	1	299.939	0.46194	0.461882	0.00122017	3	0.00470766	42	0.2084	5.63574e-07