File: Python/Data/RDE/240223-OCV-EIS-Fe2Fe3_5mM-HCl1M-1225RPM-Ag_AgCl_BLF8-GC-RDE-1minRestVSEoc-3ppf-14p1mVAmplitude_07_OCV_C15.mpt
EC-Lab ASCII FILE
Nb header lines : 47

Open Circuit Voltage

Run on channel : 15 (SN 19485)
User :
Electrode connection : standard
Potential control : Ewe
Ewe ctrl range : min = -1.00 V, max = 1.00 V
Ewe,I filtering : 50 kHz
Safety Limits :
	Do not start on E overload
Channel : Floating
Acquisition started on : 02/23/2024 14:49:54.683
Loaded Setting File :  NONE
Saved on :
	File : 240223-OCV-EIS-Fe2Fe3_5mM-HCl1M-1225RPM-Ag_AgCl_BLF8-GC-RDE-1minRestVSEoc-3ppf-14p1mVAmplitude_07_OCV_C15.mpr
	Directory : C:\Data\mathias\RDE-RPM-variation\
	Host : 192.168.0.1
Device : VMP-300 (SN 0826)
Address : USB
EC-Lab for windows v11.52 (software)
Internet server v11.52 (firmware)
Command interpretor v11.52 (firmware)
Electrode material :
Initial state :
Electrolyte :
Comments :
Cable : special
Reference electrode : SCE Saturated Calomel Electrode (0.241 V)
Electrode surface area : 0.001 cm²
Characteristic mass : 0.001 g
Equivalent Weight : 0.000 g/eq.
Density : 0.000 g/cm3
Volume (V) : 0.001 cm³
Record EIS quality indicators
Cycle Definition : Charge/Discharge alternance
tR (h:m:s)          0:01:0.0000
dER/dt (mV/h)       1.0
record              <Ewe>
dER (mV)            0.00
dtR (s)             0.5000
E range min (V)     -1.000
E range max (V)     1.000

mode	error	time/s	<Ewe/V>
3	0	1441.76	0.459328
3	0	1442.26	0.459581
3	0	1442.76	0.459667
3	0	1443.26	0.459702
3	0	1443.76	0.459725
3	0	1444.26	0.45974
3	0	1444.76	0.459746
3	0	1445.26	0.459754
3	0	1445.76	0.459761
3	0	1446.26	0.459765
3	0	1446.76	0.459768
3	0	1447.26	0.459772
3	0	1447.76	0.459771
3	0	1448.26	0.459774
3	0	1448.76	0.459775
3	0	1449.26	0.459775
3	0	1449.76	0.459775
3	0	1450.26	0.459778
3	0	1450.76	0.459776
3	0	1451.26	0.459775
3	0	1451.76	0.459776
3	0	1452.26	0.459778
3	0	1452.76	0.459777
3	0	1453.26	0.459775
3	0	1453.76	0.459779
3	0	1454.26	0.459779
3	0	1454.76	0.459779
3	0	1455.26	0.459778
3	0	1455.76	0.459779
3	0	1456.26	0.45978
3	0	1456.76	0.459779
3	0	1457.26	0.459781
3	0	1457.76	0.45978
3	0	1458.26	0.45978
3	0	1458.76	0.45978
3	0	1459.26	0.459782
3	0	1459.76	0.459784
3	0	1460.26	0.459784
3	0	1460.76	0.459782
3	0	1461.26	0.459781
3	0	1461.76	0.459779
3	0	1462.26	0.459781
3	0	1462.76	0.45978
3	0	1463.26	0.459779
3	0	1463.76	0.459778
3	0	1464.26	0.459782
3	0	1464.76	0.459784
3	0	1465.26	0.459784
3	0	1465.76	0.459783
3	0	1466.26	0.459782
3	0	1466.76	0.459779
3	0	1467.26	0.459779
3	0	1467.76	0.459783
3	0	1468.26	0.459783
3	0	1468.76	0.459783
3	0	1469.26	0.459784
3	0	1469.76	0.459786
3	0	1470.26	0.459785
3	0	1470.76	0.459781
3	0	1471.26	0.459782
3	0	1471.76	0.459781
3	0	1472.26	0.459782
3	0	1472.76	0.45978
3	0	1473.26	0.459782
3	0	1473.76	0.459784
3	0	1474.26	0.459789
3	0	1474.76	0.459789
3	0	1475.26	0.459787
3	0	1475.76	0.459786
3	0	1476.26	0.459787
3	0	1476.76	0.459787
3	0	1477.26	0.459788
3	0	1477.76	0.459786
3	0	1478.26	0.459787
3	0	1478.76	0.459785
3	0	1479.26	0.459785
3	0	1479.76	0.459781
3	0	1480.26	0.459783
3	0	1480.76	0.459783
3	0	1481.26	0.459785
3	0	1481.76	0.459788
3	0	1482.26	0.45979
3	0	1482.76	0.459791
3	0	1483.26	0.459787
3	0	1483.76	0.459788
3	0	1484.26	0.459785
3	0	1484.76	0.459784
3	0	1485.26	0.459785
3	0	1485.76	0.459787
3	0	1486.26	0.459786
3	0	1486.76	0.459785
3	0	1487.26	0.459786
3	0	1487.76	0.459786
3	0	1488.26	0.459786
3	0	1488.76	0.459786
3	0	1489.26	0.459787
3	0	1489.76	0.459786
3	0	1490.26	0.459787
3	0	1490.76	0.459788
3	0	1491.26	0.459787
3	0	1491.76	0.459787
3	0	1492.26	0.459785
3	0	1492.76	0.459787
3	0	1493.26	0.459786
3	0	1493.76	0.459787
3	0	1494.26	0.459786
3	0	1494.76	0.459783
3	0	1495.26	0.459781
3	0	1495.76	0.459781
3	0	1496.26	0.459782
3	0	1496.76	0.459782
3	0	1497.26	0.459784
3	0	1497.76	0.459784
3	0	1498.26	0.459787
3	0	1498.76	0.459788
3	0	1499.26	0.459798
3	0	1499.76	0.459798
3	0	1500.26	0.459798
3	0	1500.76	0.459792
3	0	1501.26	0.459785
3	0	1501.41	0.459784