File: Python/Data/RDE/240223-OCV-EIS-Fe2Fe3_5mM-HCl1M-0RPM-Ag_AgCl_BLF8-GC-RDE-1minRestVSEoc-3ppf-14p1mVAmplitude_02_PEIS_C15.mpt
EC-Lab ASCII FILE
Nb header lines : 67

Potentio Electrochemical Impedance Spectroscopy

Run on channel : 15 (SN 19485)
User :
Electrode connection : standard
Potential control : Ewe
Ewe ctrl range : min = -1.00 V, max = 1.00 V
Ewe,I filtering : 50 kHz
Safety Limits :
	Do not start on E overload
Channel : Floating
Acquisition started on : 02/23/2024 16:29:27.631
Loaded Setting File :  NONE
Saved on :
	File : 240223-OCV-EIS-Fe2Fe3_5mM-HCl1M-0RPM-Ag_AgCl_BLF8-GC-RDE-1minRestVSEoc-3ppf-14p1mVAmplitude_02_PEIS_C15.mpr
	Directory : C:\Data\mathias\RDE-RPM-variation\
	Host : 192.168.0.1
Device : VMP-300 (SN 0826)
Address : USB
EC-Lab for windows v11.52 (software)
Internet server v11.52 (firmware)
Command interpretor v11.52 (firmware)
Electrode material :
Initial state :
Electrolyte :
Comments :
Cable : special
Reference electrode : SCE Saturated Calomel Electrode (0.241 V)
Electrode surface area : 0.001 cm²
Characteristic mass : 0.001 g
Equivalent Weight : 0.000 g/eq.
Density : 0.000 g/cm3
Volume (V) : 0.001 cm³
Record EIS quality indicators
Cycle Definition : Charge/Discharge alternance
Mode                Single sine
E (V)               0.0000
vs.                 Eoc
tE (h:m:s)          0:01:0.0000
record              0
dI                  0.000
unit dI             mA
dt (s)              0.000
fi                  1.000
unit fi             MHz
ff                  100.000
unit ff             mHz
Nd                  10
Points              per decade
spacing             Logarithmic
Va (mV)             14.1
pw                  0.10
Na                  3
corr                0
E range min (V)     -1.000
E range max (V)     1.000
I Range             Auto
Bandwidth           8
nc cycles           0
goto Ns'            0
nr cycles           0
inc. cycle          1

freq/Hz	Re(Z)/Ohm	-Im(Z)/Ohm	|Z|/Ohm	Phase(Z)/deg	time/s	<Ewe>/V	<I>/mA	Cs/µF	Cp/µF	cycle number	I Range	|Ewe|/V	|I|/A	Ns	(Q-Qo)/mA.h	THD Ewe/%	NSD Ewe/%	NSR Ewe/%	|Ewe h2|/V	|Ewe h3|/V	|Ewe h4|/V	|Ewe h5|/V	|Ewe h6|/V	|Ewe h7|/V	THD I/%	NSD I/%	NSR I/%	|I h2|/A	|I h3|/A	|I h4|/A	|I h5|/A	|I h6|/A	|I h7|/A	Re(Y)/Ohm-1	Im(Y)/Ohm-1	|Y|/Ohm-1	Phase(Y)/deg	Re(C)/nF	Im(C)/nF	|C|/nF	Phase(C)/deg	Re(M)	Im(M)	|M|	Phase(M)/deg	Re(Permittivity)	Im(Permittivity)	|Permittivity|	Phase(Permittivity)/deg	Re(Resistivity)/Ohm.cm	Im(Resistivity)/Ohm.cm	|Resistivity|/Ohm.cm	Phase(Resistivity)/deg	Re(Conductivity)/mS/cm	Im(Conductivity)/mS/cm	|Conductivity|/mS/cm	Phase(Conductivity)/deg	Tan(Delta)	Loss Angle(Delta)/deg	dq/mA.h
1.00002e+06	3.50734	4.09176	5.38924	-49.3978	123.187	0.459442	-0.0112166	0.0388958	0.0224216	1	38	0.0111413	0.00206733	0	-3.10571e-06	-1	-1	-1	0	0	0	0	0	0	-1	-1	-1	0	0	0	0	0	0	0.12076	0.140882	0.185555	49.3978	22.4216	19.2192	29.5315	-40.6022	0.0000000E+000	0.0000000E+000	0.0000000E+000	40.6022	0.0000000E+000	0.0000000E+000	0.0000000E+000	-40.6022	0.0000000E+000	0.0000000E+000	0.0000000E+000	-49.3978	0.0000000E+000	0.0000000E+000	0.0000000E+000	49.3978	0.857171	40.6022	-3.10571e-06
316230	3.43058	1.35243	3.68754	-21.5158	128.787	0.459432	-0.00175041	0.372135	0.0500563	1	38	0.0145551	0.00394709	0	-5.71497e-06	-1	-1	-1	0	0	0	0	0	0	-1	-1	-1	0	0	0	0	0	0	0.252286	0.0994585	0.271183	21.5158	50.0563	126.973	136.483	-68.4842	0.0000000E+000	0.0000000E+000	0.0000000E+000	68.4842	0.0000000E+000	0.0000000E+000	0.0000000E+000	-68.4842	0.0000000E+000	0.0000000E+000	0.0000000E+000	-21.5158	0.0000000E+000	0.0000000E+000	0.0000000E+000	21.5158	2.5366	68.4842	-6.33473e-06
100004	3.40269	1.05444	3.56232	-17.2173	134.523	0.459414	-0.0018826	1.50933	0.132239	1	38	0.0145763	0.00409181	0	-8.37141e-06	0.542702	0.303747	8.9641	2.77022e-05	3.723e-05	3.2378e-05	2.10419e-05	2.98723e-05	3.17931e-05	0.0738089	0.0324956	0.702422	2.26119e-06	1.17848e-06	8.45543e-07	3.39744e-07	7.23726e-07	9.02536e-07	0.268137	0.083091	0.280716	17.2173	132.239	426.737	446.757	-72.7827	0.0000000E+000	0.0000000E+000	0.0000000E+000	72.7827	0.0000000E+000	0.0000000E+000	0.0000000E+000	-72.7827	0.0000000E+000	0.0000000E+000	0.0000000E+000	-17.2173	0.0000000E+000	0.0000000E+000	0.0000000E+000	17.2173	3.22702	72.7827	-6.03577e-06
31621.1	3.58304	2.17218	4.19005	-31.2258	140.259	0.459393	-0.00209674	2.31711	0.622728	1	38	0.0146479	0.00349588	0	-1.15337e-06	0.452472	0.170165	9.07961	3.55783e-05	2.59301e-05	2.44891e-05	2.22271e-05	2.46353e-05	2.06129e-05	0.0579312	0.0484317	0.831173	3.40406e-07	1.14397e-06	1.04099e-06	1.01502e-06	4.05649e-07	5.00284e-07	0.204086	0.123725	0.23866	31.2258	622.728	1027.2	1201.22	-58.7742	0.0000000E+000	0.0000000E+000	0.0000000E+000	58.7742	0.0000000E+000	0.0000000E+000	0.0000000E+000	-58.7742	0.0000000E+000	0.0000000E+000	0.0000000E+000	-31.2258	0.0000000E+000	0.0000000E+000	0.0000000E+000	31.2258	1.64952	58.7742	6.37414e-06
10002.2	4.19755	5.92795	7.26361	-54.6979	145.995	0.459421	-0.00203163	2.68423	1.78782	1	38	0.0144654	0.00199149	0	-6.74057e-06	0.479272	0.235453	9.31179	3.83667e-05	2.21285e-05	2.92373e-05	1.55462e-05	1.80049e-05	2.49275e-05	0.222462	0.0548762	1.45296	4.1108e-06	8.43262e-07	8.19675e-07	8.36843e-07	3.74403e-07	5.36966e-07	0.0795593	0.112357	0.137673	54.6979	1787.82	1265.94	2190.64	-35.3021	0.0000000E+000	0.0000000E+000	0.0000000E+000	35.3021	0.0000000E+000	0.0000000E+000	0.0000000E+000	-35.3021	0.0000000E+000	0.0000000E+000	0.0000000E+000	-54.6979	0.0000000E+000	0.0000000E+000	0.0000000E+000	54.6979	0.708095	35.3021	8.00332e-07
3163.04	6.34315	16.5631	17.7362	-69.0447	151.775	0.459285	-0.00248597	3.0379	2.64934	1	38	0.0139649	0.000787366	0	-1.40765e-05	0.530806	0.287272	9.50014	4.29162e-05	3.7158e-05	1.76273e-05	2.2554e-05	2.64128e-05	1.85078e-05	0.804462	0.0977295	3.65453	5.58849e-06	2.56147e-06	7.87688e-07	8.69555e-07	6.74297e-07	3.09384e-07	0.0201644	0.0526528	0.0563819	69.0447	2649.34	1014.61	2836.98	-20.9553	0.0000000E+000	0.0000000E+000	0.0000000E+000	20.9553	0.0000000E+000	0.0000000E+000	0.0000000E+000	-20.9553	0.0000000E+000	0.0000000E+000	0.0000000E+000	-69.0447	0.0000000E+000	0.0000000E+000	0.0000000E+000	69.0447	0.382969	20.9553	-1.28633e-06
999.682	13.5715	44.9442	46.9486	-73.1976	157.559	0.459281	-0.000493555	3.54229	3.24629	1	39	0.0140496	0.000299254	0	-1.69588e-05	0.588065	0.259951	9.19636	3.38823e-05	2.67105e-05	2.9009e-05	2.93587e-05	1.34516e-05	3.35621e-05	1.21973	0.137881	4.47937	3.03263e-06	1.83158e-06	2.48487e-07	7.42359e-07	6.81164e-08	3.48053e-07	0.00615719	0.0203906	0.0212999	73.1976	3246.29	980.26	3391.06	-16.8024	0.0000000E+000	0.0000000E+000	0.0000000E+000	16.8024	0.0000000E+000	0.0000000E+000	0.0000000E+000	-16.8024	0.0000000E+000	0.0000000E+000	0.0000000E+000	-73.1976	0.0000000E+000	0.0000000E+000	0.0000000E+000	73.1976	0.301963	16.8024	1.3646e-08
316.316	36.3637	116.57	122.11	-72.6748	163.087	0.459329	-0.000183052	4.31631	3.93353	1	39	0.0129888	0.000106369	0	-1.72932e-05	0.559258	0.293208	10.0323	2.36371e-05	1.62914e-05	1.45144e-05	4.02818e-05	3.83784e-05	2.40896e-05	1.17355	0.360617	12.61	9.06251e-07	4.48691e-07	2.04656e-07	4.91007e-07	2.85036e-07	3.04765e-07	0.00243874	0.00781778	0.00818933	72.6748	3933.53	1227.05	4120.48	-17.3252	0.0000000E+000	0.0000000E+000	0.0000000E+000	17.3252	0.0000000E+000	0.0000000E+000	0.0000000E+000	-17.3252	0.0000000E+000	0.0000000E+000	0.0000000E+000	-72.6748	0.0000000E+000	0.0000000E+000	0.0000000E+000	72.6748	0.311947	17.3252	-1.5948e-08
99.9682	107.472	292.051	311.198	-69.7968	168.849	0.459311	-6.01107e-05	5.45129	4.80113	1	40	0.0130507	4.1937e-05	0	-1.7607e-05	0.894116	0.498975	15.5229	2.65392e-05	6.18249e-05	1.48832e-05	3.10646e-05	6.13636e-05	5.23822e-05	0.985277	0.181934	6.43834	3.08278e-07	2.02024e-07	3.24612e-08	1.52483e-07	5.22095e-08	4.95273e-08	0.00110974	0.00301568	0.00321339	69.7968	4801.13	1766.77	5115.89	-20.2032	0.0000000E+000	0.0000000E+000	0.0000000E+000	20.2032	0.0000000E+000	0.0000000E+000	0.0000000E+000	-20.2032	0.0000000E+000	0.0000000E+000	0.0000000E+000	-69.7968	0.0000000E+000	0.0000000E+000	0.0000000E+000	69.7968	0.367991	20.2032	-6.11761e-08
31.6296	334.144	687.83	764.698	-64.0898	174.177	0.459328	-8.74184e-05	7.31552	5.91873	1	40	0.0129209	1.68968e-05	0	-1.77803e-05	0.882308	0.417378	15.6001	3.15565e-05	5.06708e-05	4.11332e-05	4.84047e-05	3.05462e-05	4.53173e-05	0.931499	0.402257	15.709	1.2208e-07	2.25991e-08	2.96205e-08	4.74063e-08	4.05564e-08	5.85685e-08	0.000571418	0.00117625	0.00130771	64.0898	5918.73	2875.29	6580.16	-25.9102	0.0000000E+000	0.0000000E+000	0.0000000E+000	25.9102	0.0000000E+000	0.0000000E+000	0.0000000E+000	-25.9102	0.0000000E+000	0.0000000E+000	0.0000000E+000	-64.0898	0.0000000E+000	0.0000000E+000	0.0000000E+000	64.0898	0.485795	25.9102	-4.57678e-08
9.99682	1035.33	1356.37	1706.36	-52.6454	179.877	0.45934	-6.62575e-05	11.7376	7.41649	1	41	0.0128939	7.55643e-06	0	-1.7931e-05	1.01697	0.6706	19.9969	3.97582e-05	5.31237e-05	2.71157e-05	7.23655e-05	3.96221e-05	4.96622e-05	0.933626	0.237598	6.65344	5.25314e-08	3.06663e-08	8.04763e-09	2.95664e-08	8.07832e-09	1.30619e-08	0.000355581	0.000465844	0.000586044	52.6454	7416.5	5661.04	9330.16	-37.3546	0.0000000E+000	0.0000000E+000	0.0000000E+000	37.3546	0.0000000E+000	0.0000000E+000	0.0000000E+000	-37.3546	0.0000000E+000	0.0000000E+000	0.0000000E+000	-52.6454	0.0000000E+000	0.0000000E+000	0.0000000E+000	52.6454	0.763304	37.3546	-7.39198e-08
3.16296	2541.42	1716.48	3066.78	-34.0352	188.318	0.459337	-6.35959e-05	29.3148	9.18335	1	41	0.0128772	4.19893e-06	0	-1.80496e-05	0.464175	0.279487	8.80391	1.82911e-05	2.5205e-05	2.27492e-05	2.3852e-05	1.91908e-05	2.44524e-05	0.845407	0.20138	5.51079	3.04372e-08	1.45835e-08	4.19688e-09	6.72174e-09	3.98815e-09	3.93283e-09	0.000270216	0.000182505	0.000326075	34.0352	9183.35	13596.9	16407.6	-55.9648	0.0000000E+000	0.0000000E+000	0.0000000E+000	55.9648	0.0000000E+000	0.0000000E+000	0.0000000E+000	-55.9648	0.0000000E+000	0.0000000E+000	0.0000000E+000	-34.0352	0.0000000E+000	0.0000000E+000	0.0000000E+000	34.0352	1.4806	55.9648	2.92434e-08
1.00006	3845.31	1215.7	4032.91	-17.5444	211.739	0.459341	-6.10206e-05	130.908	11.8955	1	42	0.0128668	3.19046e-06	0	-1.86155e-05	0.237141	0.0998414	4.83179	1.16286e-05	1.24972e-05	8.37367e-06	1.39473e-05	1.51725e-05	6.72841e-06	0.774394	0.0624657	0.990326	2.19937e-08	1.0453e-08	3.80243e-10	4.07442e-09	6.15205e-10	3.99157e-10	0.000236426	7.47463e-05	0.00024796	17.5444	11895.5	37626	39461.7	-72.4556	0.0000000E+000	0.0000000E+000	0.0000000E+000	72.4556	0.0000000E+000	0.0000000E+000	0.0000000E+000	-72.4556	0.0000000E+000	0.0000000E+000	0.0000000E+000	-17.5444	0.0000000E+000	0.0000000E+000	0.0000000E+000	17.5444	3.16305	72.4556	-3.57218e-07
0.316193	4447.08	707.677	4503.03	-9.04184	277.536	0.459338	-6.22588e-05	711.268	17.5668	1	42	0.0128678	2.85759e-06	0	-1.94357e-05	0.176288	0.0884658	2.62841	3.53121e-06	1.10488e-05	9.0631e-06	1.04471e-05	6.57373e-06	8.3243e-06	0.787483	0.0365881	1.13101	2.06191e-08	8.6989e-09	3.15402e-10	2.24072e-09	4.3819e-10	1.64599e-10	0.000219313	3.49e-05	0.000222073	9.04184	17566.8	110391	111780	-80.9582	0.0000000E+000	0.0000000E+000	0.0000000E+000	80.9582	0.0000000E+000	0.0000000E+000	0.0000000E+000	-80.9582	0.0000000E+000	0.0000000E+000	0.0000000E+000	-9.04184	0.0000000E+000	0.0000000E+000	0.0000000E+000	9.04184	6.28405	80.9582	8.90888e-08
0.0999518	4753.3	466.919	4776.18	-5.61019	482.118	0.459331	-5.80669e-05	3410.26	32.5919	1	42	0.0128615	2.69284e-06	0	-2.37569e-05	0.111779	0.0576652	1.5542	3.10926e-06	7.35988e-06	3.77806e-06	9.63908e-06	2.17176e-06	3.5025e-06	0.804583	0.0527618	1.29545	2.01135e-08	7.77661e-09	2.97281e-10	2.04877e-09	9.44329e-11	2.00352e-10	0.000208369	2.04682e-05	0.000209372	5.61019	32591.9	331790	333387	-84.3898	0.0000000E+000	0.0000000E+000	0.0000000E+000	84.3898	0.0000000E+000	0.0000000E+000	0.0000000E+000	-84.3898	0.0000000E+000	0.0000000E+000	0.0000000E+000	-5.61019	0.0000000E+000	0.0000000E+000	0.0000000E+000	5.61019	10.1801	84.3898	-8.64434e-07