File: Python/Data/RDE/240223-OCV-EIS-Fe2Fe3_5mM-HCl1M-225RPM-Ag_AgCl_BLF8-GC-RDE-1minRestVSEoc-3ppf-14p1mVAmplitude_02_PEIS_C15.mpt
EC-Lab ASCII FILE
Nb header lines : 67

Potentio Electrochemical Impedance Spectroscopy

Run on channel : 15 (SN 19485)
User :
Electrode connection : standard
Potential control : Ewe
Ewe ctrl range : min = -1.00 V, max = 1.00 V
Ewe,I filtering : 50 kHz
Safety Limits :
	Do not start on E overload
Channel : Floating
Acquisition started on : 02/23/2024 15:54:32.363
Loaded Setting File :  NONE
Saved on :
	File : 240223-OCV-EIS-Fe2Fe3_5mM-HCl1M-225RPM-Ag_AgCl_BLF8-GC-RDE-1minRestVSEoc-3ppf-14p1mVAmplitude_02_PEIS_C15.mpr
	Directory : C:\Data\mathias\RDE-RPM-variation\
	Host : 192.168.0.1
Device : VMP-300 (SN 0826)
Address : USB
EC-Lab for windows v11.52 (software)
Internet server v11.52 (firmware)
Command interpretor v11.52 (firmware)
Electrode material :
Initial state :
Electrolyte :
Comments :
Cable : special
Reference electrode : SCE Saturated Calomel Electrode (0.241 V)
Electrode surface area : 0.001 cm²
Characteristic mass : 0.001 g
Equivalent Weight : 0.000 g/eq.
Density : 0.000 g/cm3
Volume (V) : 0.001 cm³
Record EIS quality indicators
Cycle Definition : Charge/Discharge alternance
Mode                Single sine
E (V)               0.0000
vs.                 Eoc
tE (h:m:s)          0:01:0.0000
record              0
dI                  0.000
unit dI             mA
dt (s)              0.000
fi                  1.000
unit fi             MHz
ff                  100.000
unit ff             mHz
Nd                  10
Points              per decade
spacing             Logarithmic
Va (mV)             14.1
pw                  0.10
Na                  3
corr                0
E range min (V)     -1.000
E range max (V)     1.000
I Range             Auto
Bandwidth           8
nc cycles           0
goto Ns'            0
nr cycles           0
inc. cycle          1

freq/Hz	Re(Z)/Ohm	-Im(Z)/Ohm	|Z|/Ohm	Phase(Z)/deg	time/s	<Ewe>/V	<I>/mA	Cs/µF	Cp/µF	cycle number	I Range	|Ewe|/V	|I|/A	Ns	(Q-Qo)/mA.h	THD Ewe/%	NSD Ewe/%	NSR Ewe/%	|Ewe h2|/V	|Ewe h3|/V	|Ewe h4|/V	|Ewe h5|/V	|Ewe h6|/V	|Ewe h7|/V	THD I/%	NSD I/%	NSR I/%	|I h2|/A	|I h3|/A	|I h4|/A	|I h5|/A	|I h6|/A	|I h7|/A	Re(Y)/Ohm-1	Im(Y)/Ohm-1	|Y|/Ohm-1	Phase(Y)/deg	Re(C)/nF	Im(C)/nF	|C|/nF	Phase(C)/deg	Re(M)	Im(M)	|M|	Phase(M)/deg	Re(Permittivity)	Im(Permittivity)	|Permittivity|	Phase(Permittivity)/deg	Re(Resistivity)/Ohm.cm	Im(Resistivity)/Ohm.cm	|Resistivity|/Ohm.cm	Phase(Resistivity)/deg	Re(Conductivity)/mS/cm	Im(Conductivity)/mS/cm	|Conductivity|/mS/cm	Phase(Conductivity)/deg	Tan(Delta)	Loss Angle(Delta)/deg	dq/mA.h
1.00002e+06	3.51357	4.08623	5.3891	-49.3093	119.761	0.459536	-0.0117342	0.0389483	0.0223925	1	38	0.01114	0.00206714	0	-3.42335e-06	-1	-1	-1	0	0	0	0	0	0	-1	-1	-1	0	0	0	0	0	0	0.12098	0.140699	0.18556	49.3093	22.3925	19.2543	29.5322	-40.6907	0.0000000E+000	0.0000000E+000	0.0000000E+000	40.6907	0.0000000E+000	0.0000000E+000	0.0000000E+000	-40.6907	0.0000000E+000	0.0000000E+000	0.0000000E+000	-49.3093	0.0000000E+000	0.0000000E+000	0.0000000E+000	49.3093	0.859855	40.6907	-3.42335e-06
316230	3.43905	1.35847	3.69763	-21.5546	125.362	0.459532	-0.00118996	0.370483	0.0500056	1	38	0.0145869	0.00394494	0	-2.78537e-06	-1	-1	-1	0	0	0	0	0	0	-1	-1	-1	0	0	0	0	0	0	0.251531	0.0993578	0.270444	21.5546	50.0056	126.593	136.111	-68.4454	0.0000000E+000	0.0000000E+000	0.0000000E+000	68.4454	0.0000000E+000	0.0000000E+000	0.0000000E+000	-68.4454	0.0000000E+000	0.0000000E+000	0.0000000E+000	-21.5546	0.0000000E+000	0.0000000E+000	0.0000000E+000	21.5546	2.53157	68.4454	-2.42645e-06
100004	3.41317	1.05902	3.57369	-17.2379	131.097	0.459544	-0.000901365	1.50279	0.13197	1	38	0.0145136	0.00406123	0	-1.70476e-05	0.550324	0.296468	9.15164	1.87547e-05	2.28326e-05	4.18718e-05	3.53507e-05	3.94723e-05	1.24901e-05	0.0665494	0.0493717	0.708822	1.44916e-06	1.42379e-06	7.70918e-07	4.42284e-07	1.03197e-06	8.57761e-07	0.267254	0.0829225	0.279823	17.2379	131.97	425.333	445.336	-72.7621	0.0000000E+000	0.0000000E+000	0.0000000E+000	72.7621	0.0000000E+000	0.0000000E+000	0.0000000E+000	-72.7621	0.0000000E+000	0.0000000E+000	0.0000000E+000	-17.2379	0.0000000E+000	0.0000000E+000	0.0000000E+000	17.2379	3.22294	72.7621	-5.95986e-06
31621.1	3.61007	2.16856	4.21133	-30.9931	136.832	0.459538	-0.00229038	2.32098	0.615426	1	38	0.0147237	0.00349621	0	-3.61463e-05	0.494549	0.329503	8.90948	3.15314e-05	2.6598e-05	3.40735e-05	2.09023e-05	2.66404e-05	2.36414e-05	0.0554339	0.0893275	0.822959	7.50087e-07	9.69083e-07	7.08813e-07	7.81722e-07	7.96232e-07	4.0871e-07	0.203553	0.122274	0.237455	30.9931	615.426	1024.52	1195.15	-59.0069	0.0000000E+000	0.0000000E+000	0.0000000E+000	59.0069	0.0000000E+000	0.0000000E+000	0.0000000E+000	-59.0069	0.0000000E+000	0.0000000E+000	0.0000000E+000	-30.9931	0.0000000E+000	0.0000000E+000	0.0000000E+000	30.9931	1.66473	59.0069	-4.47608e-06
10002.2	4.21824	5.90153	7.25407	-54.444	142.564	0.459512	-0.00173558	2.69624	1.78453	1	38	0.014564	0.0020077	0	-6.25914e-05	0.518792	0.346015	9.14827	3.42171e-05	2.2058e-05	2.82215e-05	3.07923e-05	3.48558e-05	2.30078e-05	0.195752	0.185184	1.45207	3.72963e-06	6.73753e-07	6.90559e-07	3.78085e-07	3.99385e-07	2.15912e-07	0.0801617	0.11215	0.137854	54.444	1784.53	1275.53	2193.52	-35.556	0.0000000E+000	0.0000000E+000	0.0000000E+000	35.556	0.0000000E+000	0.0000000E+000	0.0000000E+000	-35.556	0.0000000E+000	0.0000000E+000	0.0000000E+000	-54.444	0.0000000E+000	0.0000000E+000	0.0000000E+000	54.444	0.71477	35.556	-3.59284e-06
3163.04	6.37483	16.4209	17.6149	-68.7831	148.348	0.459383	-0.00286022	3.06421	2.66289	1	38	0.0139508	0.000791986	0	-6.95026e-05	0.454515	0.266176	9.59679	3.04497e-05	1.94015e-05	2.66942e-05	1.74155e-05	2.26998e-05	1.8919e-05	0.857158	0.16831	3.63226	6.00008e-06	2.39047e-06	6.26228e-07	1.65899e-06	6.2755e-07	4.21025e-07	0.0205451	0.0529221	0.0567701	68.7831	2662.89	1033.77	2856.51	-21.2169	0.0000000E+000	0.0000000E+000	0.0000000E+000	21.2169	0.0000000E+000	0.0000000E+000	0.0000000E+000	-21.2169	0.0000000E+000	0.0000000E+000	0.0000000E+000	-68.7831	0.0000000E+000	0.0000000E+000	0.0000000E+000	68.7831	0.388214	21.2169	-7.63686e-07
999.682	13.6647	44.6176	46.6632	-72.9721	154.134	0.459378	-0.000121356	3.56822	3.26224	1	39	0.0140694	0.000301509	0	-7.22742e-05	0.381043	0.31098	8.82856	1.28173e-05	2.62355e-05	1.98641e-05	1.85148e-05	2.50773e-05	1.53761e-05	1.2082	0.154226	4.23548	2.96349e-06	1.90802e-06	1.85669e-07	7.88626e-07	2.73954e-07	2.5536e-07	0.00627554	0.0204907	0.0214302	72.9721	3262.24	999.102	3411.8	-17.0279	0.0000000E+000	0.0000000E+000	0.0000000E+000	17.0279	0.0000000E+000	0.0000000E+000	0.0000000E+000	-17.0279	0.0000000E+000	0.0000000E+000	0.0000000E+000	-72.9721	0.0000000E+000	0.0000000E+000	0.0000000E+000	72.9721	0.306263	17.0279	-1.91646e-07
316.316	36.2801	115.637	121.194	-72.5812	159.661	0.459413	-3.20852e-05	4.35115	3.96123	1	39	0.0129861	0.000107151	0	-7.2725e-05	0.529199	0.287382	9.72846	2.84676e-05	2.30191e-05	1.66409e-05	3.68069e-05	2.26601e-05	2.64164e-05	1.10598	0.414531	12.0547	8.85324e-07	5.44507e-07	2.99284e-07	3.20391e-07	1.42922e-07	1.92009e-07	0.00247004	0.00787283	0.00825121	72.5812	3961.23	1242.8	4151.61	-17.4188	0.0000000E+000	0.0000000E+000	0.0000000E+000	17.4188	0.0000000E+000	0.0000000E+000	0.0000000E+000	-17.4188	0.0000000E+000	0.0000000E+000	0.0000000E+000	-72.5812	0.0000000E+000	0.0000000E+000	0.0000000E+000	72.5812	0.313742	17.4188	-8.54826e-08
99.9682	106.796	289.488	308.559	-69.7502	165.421	0.459424	-7.96503e-05	5.49956	4.84074	1	40	0.0130708	4.23608e-05	0	-7.29956e-05	0.902979	0.439869	14.8647	4.21734e-05	4.04329e-05	3.73315e-05	4.35851e-05	5.34622e-05	5.76194e-05	1.04034	0.110921	6.10965	3.40315e-07	1.83348e-07	5.02035e-08	1.72606e-07	6.15718e-08	6.73252e-08	0.00112171	0.00304056	0.00324087	69.7502	4840.74	1785.82	5159.65	-20.2498	0.0000000E+000	0.0000000E+000	0.0000000E+000	20.2498	0.0000000E+000	0.0000000E+000	0.0000000E+000	-20.2498	0.0000000E+000	0.0000000E+000	0.0000000E+000	-69.7502	0.0000000E+000	0.0000000E+000	0.0000000E+000	69.7502	0.368915	20.2498	3.34037e-09
31.6296	329.443	677.696	753.528	-64.0746	170.749	0.45943	-9.45711e-05	7.42492	6.00569	1	40	0.0128837	1.70979e-05	0	-7.30513e-05	0.778084	0.470069	15.6773	3.92056e-05	5.74565e-05	1.64874e-05	4.21296e-05	3.15892e-05	3.20284e-05	1.04881	0.420535	15.5417	1.27985e-07	7.45788e-08	2.10489e-08	6.42586e-08	4.45604e-08	3.37467e-08	0.000580205	0.00119354	0.00132709	64.0746	6005.69	2919.5	6677.71	-25.9254	0.0000000E+000	0.0000000E+000	0.0000000E+000	25.9254	0.0000000E+000	0.0000000E+000	0.0000000E+000	-25.9254	0.0000000E+000	0.0000000E+000	0.0000000E+000	-64.0746	0.0000000E+000	0.0000000E+000	0.0000000E+000	64.0746	0.486123	25.9254	6.56272e-09
9.99682	1034.35	1338.41	1691.51	-52.3025	176.45	0.459408	-6.87604e-05	11.8952	7.44729	1	41	0.0128877	7.61904e-06	0	-7.3111e-05	1.00069	0.558368	20.0828	4.48315e-05	4.87606e-05	4.11071e-05	1.97902e-05	7.13402e-05	5.99057e-05	0.859499	0.237772	6.70074	5.38346e-08	2.66372e-08	8.72635e-09	1.39868e-08	1.36955e-08	9.63429e-09	0.000361507	0.000467778	0.000591188	52.3025	7447.29	5755.4	9412.05	-37.6975	0.0000000E+000	0.0000000E+000	0.0000000E+000	37.6975	0.0000000E+000	0.0000000E+000	0.0000000E+000	-37.6975	0.0000000E+000	0.0000000E+000	0.0000000E+000	-52.3025	0.0000000E+000	0.0000000E+000	0.0000000E+000	52.3025	0.772818	37.6975	4.25986e-08
3.16296	2516.76	1712.25	3043.99	-34.2289	184.892	0.459435	-6.1749e-05	29.3874	9.29838	1	41	0.0128846	4.23281e-06	0	-7.3303e-05	0.475444	0.223937	8.59996	2.06967e-05	9.8263e-06	3.8442e-05	2.47605e-05	2.00185e-05	1.81241e-05	0.830092	0.125006	5.36934	2.93558e-08	1.40795e-08	6.40005e-09	9.24434e-09	4.14672e-09	3.50349e-09	0.000271616	0.000184791	0.000328517	34.2289	9298.38	13667.3	16530.4	-55.7711	0.0000000E+000	0.0000000E+000	0.0000000E+000	55.7711	0.0000000E+000	0.0000000E+000	0.0000000E+000	-55.7711	0.0000000E+000	0.0000000E+000	0.0000000E+000	-34.2289	0.0000000E+000	0.0000000E+000	0.0000000E+000	34.2289	1.46986	55.7711	-1.23913e-07
1.00006	3819.62	1209.58	4006.57	-17.5718	208.314	0.459441	-6.86005e-05	131.57	11.9918	1	42	0.0128667	3.2114e-06	0	-7.35237e-05	0.253712	0.213632	4.76035	1.87598e-05	3.95573e-06	1.22256e-05	9.02793e-06	1.58963e-05	1.28212e-05	0.772521	0.0576371	1.28546	2.22871e-08	1.02656e-08	6.22273e-10	3.53349e-09	5.11542e-10	3.49956e-10	0.000237944	7.53514e-05	0.00024959	17.5718	11991.8	37867.7	39721.1	-72.4282	0.0000000E+000	0.0000000E+000	0.0000000E+000	72.4282	0.0000000E+000	0.0000000E+000	0.0000000E+000	-72.4282	0.0000000E+000	0.0000000E+000	0.0000000E+000	-17.5718	0.0000000E+000	0.0000000E+000	0.0000000E+000	17.5718	3.1578	72.4282	1.50348e-07
0.316193	4436.62	700.322	4491.56	-8.97013	274.111	0.459432	-6.70975e-05	718.738	17.4732	1	42	0.0128636	2.86394e-06	0	-7.51691e-05	0.178424	0.0996497	2.66193	9.29753e-06	7.81504e-06	6.77131e-06	1.08792e-05	7.7478e-06	6.63269e-06	0.788171	0.0375553	1.44397	2.07713e-08	8.44995e-09	2.59766e-10	2.52429e-09	1.32064e-10	2.64505e-10	0.000219917	3.47139e-05	0.00022264	8.97013	17473.2	110695	112065	-81.0299	0.0000000E+000	0.0000000E+000	0.0000000E+000	81.0299	0.0000000E+000	0.0000000E+000	0.0000000E+000	-81.0299	0.0000000E+000	0.0000000E+000	0.0000000E+000	-8.97013	0.0000000E+000	0.0000000E+000	0.0000000E+000	8.97013	6.33512	81.0299	-8.36747e-07
0.0999518	4780.98	359.166	4794.45	-4.29622	478.693	0.459433	-6.00101e-05	4433.37	24.8798	1	42	0.0128668	2.68368e-06	0	-7.80013e-05	0.113886	0.0557767	1.46618	2.77011e-06	8.8941e-06	6.95005e-06	5.88427e-06	2.91685e-06	3.8534e-06	0.777765	0.0465877	1.48958	1.93743e-08	7.4275e-09	3.29653e-10	2.18853e-09	2.35157e-10	1.94804e-10	0.000207988	1.56249e-05	0.000208574	4.29622	24879.8	331183	332117	-85.7038	0.0000000E+000	0.0000000E+000	0.0000000E+000	85.7038	0.0000000E+000	0.0000000E+000	0.0000000E+000	-85.7038	0.0000000E+000	0.0000000E+000	0.0000000E+000	-4.29622	0.0000000E+000	0.0000000E+000	0.0000000E+000	4.29622	13.3113	85.7038	-1.48023e-06