File: Python/Data/RDE/240223-OCV-EIS-Fe2Fe3_5mM-HCl1M-2000RPM-Ag_AgCl_BLF8-GC-RDE-AllPreviousVariations_05_OCV_C15.mpt
EC-Lab ASCII FILE
Nb header lines : 47

Open Circuit Voltage

Run on channel : 15 (SN 19485)
User :
Electrode connection : standard
Potential control : Ewe
Ewe ctrl range : min = -1.00 V, max = 1.00 V
Ewe,I filtering : 50 kHz
Safety Limits :
	Do not start on E overload
Channel : Floating
Acquisition started on : 02/23/2024 12:36:41.987
Loaded Setting File :  C:\Data\mathias\RDE-RPM-variation\240222-CV-EIS-Fe2Fe3_5mM-HCl1M-0RPM-Ag_AgCl_BLF8-GC-RDE-DefaultSettings.mps
Saved on :
	File : 240223-OCV-EIS-Fe2Fe3_5mM-HCl1M-2000RPM-Ag_AgCl_BLF8-GC-RDE-AllPreviousVariations_05_OCV_C15.mpr
	Directory : C:\Data\mathias\RDE-RPM-variation\
	Host : 192.168.0.1
Device : VMP-300 (SN 0826)
Address : USB
EC-Lab for windows v11.52 (software)
Internet server v11.52 (firmware)
Command interpretor v11.52 (firmware)
Electrode material :
Initial state :
Electrolyte :
Comments :
Cable : special
Reference electrode : SCE Saturated Calomel Electrode (0.241 V)
Electrode surface area : 0.001 cm²
Characteristic mass : 0.001 g
Equivalent Weight : 0.000 g/eq.
Density : 0.000 g/cm3
Volume (V) : 0.001 cm³
Record EIS quality indicators
Cycle Definition : Charge/Discharge alternance
tR (h:m:s)          0:01:0.0000
dER/dt (mV/h)       1.0
record              <Ewe>
dER (mV)            0.00
dtR (s)             0.5000
E range min (V)     -1.000
E range max (V)     1.000

mode	error	time/s	<Ewe/V>
3	0	1540.16	0.415392
3	0	1540.66	0.447002
3	0	1541.16	0.452815
3	0	1541.66	0.45504
3	0	1542.16	0.456231
3	0	1542.66	0.456976
3	0	1543.16	0.457478
3	0	1543.66	0.457836
3	0	1544.16	0.458098
3	0	1544.66	0.458304
3	0	1545.16	0.458469
3	0	1545.66	0.458603
3	0	1546.16	0.458714
3	0	1546.66	0.458805
3	0	1547.16	0.458887
3	0	1547.66	0.458954
3	0	1548.16	0.459016
3	0	1548.66	0.459068
3	0	1549.16	0.459115
3	0	1549.66	0.459157
3	0	1550.16	0.459193
3	0	1550.66	0.459227
3	0	1551.16	0.459257
3	0	1551.66	0.459281
3	0	1552.16	0.459304
3	0	1552.66	0.459323
3	0	1553.16	0.459339
3	0	1553.66	0.459359
3	0	1554.16	0.459379
3	0	1554.66	0.459396
3	0	1555.16	0.459413
3	0	1555.66	0.459427
3	0	1556.16	0.459439
3	0	1556.66	0.459451
3	0	1557.16	0.459461
3	0	1557.66	0.459472
3	0	1558.16	0.459483
3	0	1558.66	0.459492
3	0	1559.16	0.459502
3	0	1559.66	0.459507
3	0	1560.16	0.459513
3	0	1560.66	0.459522
3	0	1561.16	0.459532
3	0	1561.66	0.45954
3	0	1562.16	0.459546
3	0	1562.66	0.459555
3	0	1563.16	0.459562
3	0	1563.66	0.45957
3	0	1564.16	0.459573
3	0	1564.66	0.45958
3	0	1565.16	0.459586
3	0	1565.66	0.459589
3	0	1566.16	0.459594
3	0	1566.66	0.459596
3	0	1567.16	0.459601
3	0	1567.66	0.459604
3	0	1568.16	0.459609
3	0	1568.66	0.459613
3	0	1569.16	0.459616
3	0	1569.66	0.459618
3	0	1570.16	0.459622
3	0	1570.66	0.459628
3	0	1571.16	0.459628
3	0	1571.66	0.459631
3	0	1572.16	0.459634
3	0	1572.66	0.459636
3	0	1573.16	0.459639
3	0	1573.66	0.459638
3	0	1574.16	0.459642
3	0	1574.66	0.459642
3	0	1575.16	0.459644
3	0	1575.66	0.459647
3	0	1576.16	0.459652
3	0	1576.66	0.459656
3	0	1577.16	0.459656
3	0	1577.66	0.459659
3	0	1578.16	0.459661
3	0	1578.66	0.459664
3	0	1579.16	0.459663
3	0	1579.66	0.459665
3	0	1580.16	0.459666
3	0	1580.66	0.459665
3	0	1581.16	0.459668
3	0	1581.66	0.459673
3	0	1582.16	0.459675
3	0	1582.66	0.459678
3	0	1583.16	0.459676
3	0	1583.66	0.459677
3	0	1584.16	0.459678
3	0	1584.66	0.459681
3	0	1585.16	0.459681
3	0	1585.66	0.459685
3	0	1586.16	0.459688
3	0	1586.66	0.45969
3	0	1587.16	0.459696
3	0	1587.66	0.459696
3	0	1588.16	0.459699
3	0	1588.66	0.459701
3	0	1589.16	0.459702
3	0	1589.66	0.459704
3	0	1590.16	0.459706
3	0	1590.66	0.459706
3	0	1591.16	0.459711
3	0	1591.66	0.459711
3	0	1592.16	0.45971
3	0	1592.66	0.459712
3	0	1593.16	0.459711
3	0	1593.66	0.459711
3	0	1594.16	0.459714
3	0	1594.66	0.459716
3	0	1595.16	0.459716
3	0	1595.66	0.459718
3	0	1596.16	0.459717
3	0	1596.66	0.459719
3	0	1597.16	0.459723
3	0	1597.66	0.459726
3	0	1598.16	0.459728
3	0	1598.66	0.459731
3	0	1599.16	0.459733
3	0	1599.66	0.459731
3	0	1599.82	0.459731