File: Python/Data/RDE/240223-OCV-EIS-Fe2Fe3_5mM-HCl1M-1225RPM-Ag_AgCl_BLF8-GC-RDE-1minRestVSEoc-3ppf-14p1mVAmplitude_05_OCV_C15.mpt
EC-Lab ASCII FILE
Nb header lines : 47

Open Circuit Voltage

Run on channel : 15 (SN 19485)
User :
Electrode connection : standard
Potential control : Ewe
Ewe ctrl range : min = -1.00 V, max = 1.00 V
Ewe,I filtering : 50 kHz
Safety Limits :
	Do not start on E overload
Channel : Floating
Acquisition started on : 02/23/2024 14:49:54.683
Loaded Setting File :  NONE
Saved on :
	File : 240223-OCV-EIS-Fe2Fe3_5mM-HCl1M-1225RPM-Ag_AgCl_BLF8-GC-RDE-1minRestVSEoc-3ppf-14p1mVAmplitude_05_OCV_C15.mpr
	Directory : C:\Data\mathias\RDE-RPM-variation\
	Host : 192.168.0.1
Device : VMP-300 (SN 0826)
Address : USB
EC-Lab for windows v11.52 (software)
Internet server v11.52 (firmware)
Command interpretor v11.52 (firmware)
Electrode material :
Initial state :
Electrolyte :
Comments :
Cable : special
Reference electrode : SCE Saturated Calomel Electrode (0.241 V)
Electrode surface area : 0.001 cm²
Characteristic mass : 0.001 g
Equivalent Weight : 0.000 g/eq.
Density : 0.000 g/cm3
Volume (V) : 0.001 cm³
Record EIS quality indicators
Cycle Definition : Charge/Discharge alternance
tR (h:m:s)          0:01:0.0000
dER/dt (mV/h)       1.0
record              <Ewe>
dER (mV)            0.00
dtR (s)             0.5000
E range min (V)     -1.000
E range max (V)     1.000

mode	error	time/s	<Ewe/V>
3	0	958.928	0.460941
3	0	959.428	0.460066
3	0	959.928	0.459918
3	0	960.428	0.459869
3	0	960.928	0.459847
3	0	961.428	0.459839
3	0	961.928	0.459835
3	0	962.428	0.459832
3	0	962.928	0.459829
3	0	963.428	0.459822
3	0	963.928	0.45982
3	0	964.428	0.459819
3	0	964.928	0.459817
3	0	965.428	0.459816
3	0	965.928	0.459816
3	0	966.428	0.459813
3	0	966.928	0.459811
3	0	967.428	0.459813
3	0	967.928	0.459814
3	0	968.428	0.459817
3	0	968.928	0.45982
3	0	969.428	0.459819
3	0	969.928	0.459814
3	0	970.428	0.459812
3	0	970.928	0.459809
3	0	971.428	0.45981
3	0	971.928	0.459809
3	0	972.428	0.459808
3	0	972.928	0.459811
3	0	973.428	0.459809
3	0	973.928	0.459806
3	0	974.428	0.459805
3	0	974.928	0.459805
3	0	975.428	0.459808
3	0	975.928	0.459807
3	0	976.428	0.459806
3	0	976.928	0.459807
3	0	977.428	0.459807
3	0	977.928	0.459799
3	0	978.428	0.459799
3	0	978.928	0.4598
3	0	979.428	0.4598
3	0	979.928	0.459801
3	0	980.428	0.459799
3	0	980.928	0.459797
3	0	981.428	0.459796
3	0	981.928	0.459797
3	0	982.428	0.459795
3	0	982.928	0.459796
3	0	983.428	0.459794
3	0	983.928	0.459794
3	0	984.428	0.459796
3	0	984.928	0.459796
3	0	985.428	0.4598
3	0	985.928	0.459795
3	0	986.428	0.459796
3	0	986.928	0.459795
3	0	987.428	0.459795
3	0	987.928	0.459794
3	0	988.428	0.459795
3	0	988.928	0.459791
3	0	989.428	0.459791
3	0	989.928	0.459797
3	0	990.428	0.459796
3	0	990.928	0.459795
3	0	991.428	0.459794
3	0	991.928	0.459791
3	0	992.428	0.459793
3	0	992.928	0.45979
3	0	993.428	0.459799
3	0	993.928	0.459798
3	0	994.428	0.459798
3	0	994.928	0.4598
3	0	995.428	0.4598
3	0	995.928	0.459799
3	0	996.428	0.459799
3	0	996.928	0.4598
3	0	997.428	0.459797
3	0	997.928	0.459796
3	0	998.428	0.459802
3	0	998.928	0.459803
3	0	999.428	0.4598
3	0	999.928	0.459798
3	0	1000.43	0.459798
3	0	1000.93	0.459793
3	0	1001.43	0.459794
3	0	1001.93	0.459795
3	0	1002.43	0.459796
3	0	1002.93	0.459795
3	0	1003.43	0.459795
3	0	1003.93	0.459796
3	0	1004.43	0.459798
3	0	1004.93	0.4598
3	0	1005.43	0.459803
3	0	1005.93	0.459805
3	0	1006.43	0.459809
3	0	1006.93	0.459811
3	0	1007.43	0.459811
3	0	1007.93	0.459807
3	0	1008.43	0.459806
3	0	1008.93	0.459807
3	0	1009.43	0.459805
3	0	1009.93	0.459805
3	0	1010.43	0.4598
3	0	1010.93	0.4598
3	0	1011.43	0.459799
3	0	1011.93	0.459799
3	0	1012.43	0.459801
3	0	1012.93	0.459802
3	0	1013.43	0.459801
3	0	1013.93	0.459802
3	0	1014.43	0.459803
3	0	1014.93	0.4598
3	0	1015.43	0.459794
3	0	1015.93	0.459797
3	0	1016.43	0.459802
3	0	1016.93	0.459804
3	0	1017.43	0.459801
3	0	1017.93	0.459795
3	0	1018.43	0.459795
3	0	1018.59	0.459795