File: Python/Data/RDE/240223-OCV-EIS-Fe2Fe3_5mM-HCl1M-2000RPM-Ag_AgCl_BLF8-GC-RDE-AllPreviousVariations_07_OCV_C15.mpt
EC-Lab ASCII FILE
Nb header lines : 47

Open Circuit Voltage

Run on channel : 15 (SN 19485)
User :
Electrode connection : standard
Potential control : Ewe
Ewe ctrl range : min = -1.00 V, max = 1.00 V
Ewe,I filtering : 50 kHz
Safety Limits :
	Do not start on E overload
Channel : Floating
Acquisition started on : 02/23/2024 12:36:41.987
Loaded Setting File :  C:\Data\mathias\RDE-RPM-variation\240222-CV-EIS-Fe2Fe3_5mM-HCl1M-0RPM-Ag_AgCl_BLF8-GC-RDE-DefaultSettings.mps
Saved on :
	File : 240223-OCV-EIS-Fe2Fe3_5mM-HCl1M-2000RPM-Ag_AgCl_BLF8-GC-RDE-AllPreviousVariations_07_OCV_C15.mpr
	Directory : C:\Data\mathias\RDE-RPM-variation\
	Host : 192.168.0.1
Device : VMP-300 (SN 0826)
Address : USB
EC-Lab for windows v11.52 (software)
Internet server v11.52 (firmware)
Command interpretor v11.52 (firmware)
Electrode material :
Initial state :
Electrolyte :
Comments :
Cable : special
Reference electrode : SCE Saturated Calomel Electrode (0.241 V)
Electrode surface area : 0.001 cm²
Characteristic mass : 0.001 g
Equivalent Weight : 0.000 g/eq.
Density : 0.000 g/cm3
Volume (V) : 0.001 cm³
Record EIS quality indicators
Cycle Definition : Charge/Discharge alternance
tR (h:m:s)          0:01:0.0000
dER/dt (mV/h)       1.0
record              <Ewe>
dER (mV)            0.00
dtR (s)             0.5000
E range min (V)     -1.000
E range max (V)     1.000

mode	error	time/s	<Ewe/V>
3	0	2723.3	0.410439
3	0	2723.8	0.444962
3	0	2724.3	0.451724
3	0	2724.8	0.454306
3	0	2725.3	0.455685
3	0	2725.8	0.456534
3	0	2726.3	0.457109
3	0	2726.8	0.457518
3	0	2727.3	0.457821
3	0	2727.8	0.458052
3	0	2728.3	0.458234
3	0	2728.8	0.458384
3	0	2729.3	0.458511
3	0	2729.8	0.458618
3	0	2730.3	0.458709
3	0	2730.8	0.458787
3	0	2731.3	0.458855
3	0	2731.8	0.458913
3	0	2732.3	0.458962
3	0	2732.8	0.459009
3	0	2733.3	0.459052
3	0	2733.8	0.459087
3	0	2734.3	0.459124
3	0	2734.8	0.459151
3	0	2735.3	0.459179
3	0	2735.8	0.459205
3	0	2736.3	0.459226
3	0	2736.8	0.459246
3	0	2737.3	0.459267
3	0	2737.8	0.459286
3	0	2738.3	0.459304
3	0	2738.8	0.45932
3	0	2739.3	0.459336
3	0	2739.8	0.459348
3	0	2740.3	0.459361
3	0	2740.8	0.459375
3	0	2741.3	0.459383
3	0	2741.8	0.459394
3	0	2742.3	0.459409
3	0	2742.8	0.459419
3	0	2743.3	0.459428
3	0	2743.8	0.459435
3	0	2744.3	0.459442
3	0	2744.8	0.45945
3	0	2745.3	0.459458
3	0	2745.8	0.459468
3	0	2746.3	0.459477
3	0	2746.8	0.459486
3	0	2747.3	0.459494
3	0	2747.8	0.459497
3	0	2748.3	0.459501
3	0	2748.8	0.459508
3	0	2749.3	0.459514
3	0	2749.8	0.45952
3	0	2750.3	0.459524
3	0	2750.8	0.459527
3	0	2751.3	0.459536
3	0	2751.8	0.459541
3	0	2752.3	0.459546
3	0	2752.8	0.459549
3	0	2753.3	0.459557
3	0	2753.8	0.459559
3	0	2754.3	0.459566
3	0	2754.8	0.459568
3	0	2755.3	0.459575
3	0	2755.8	0.459578
3	0	2756.3	0.45958
3	0	2756.8	0.459584
3	0	2757.3	0.459588
3	0	2757.8	0.45959
3	0	2758.3	0.459595
3	0	2758.8	0.459597
3	0	2759.3	0.459598
3	0	2759.8	0.459602
3	0	2760.3	0.459607
3	0	2760.8	0.459608
3	0	2761.3	0.459609
3	0	2761.8	0.459612
3	0	2762.3	0.459611
3	0	2762.8	0.459615
3	0	2763.3	0.459619
3	0	2763.8	0.45962
3	0	2764.3	0.459624
3	0	2764.8	0.459625
3	0	2765.3	0.459632
3	0	2765.8	0.459631
3	0	2766.3	0.459631
3	0	2766.8	0.459629
3	0	2767.3	0.459632
3	0	2767.8	0.459633
3	0	2768.3	0.459634
3	0	2768.8	0.459638
3	0	2769.3	0.459638
3	0	2769.8	0.459638
3	0	2770.3	0.459639
3	0	2770.8	0.45964
3	0	2771.3	0.459641
3	0	2771.8	0.459646
3	0	2772.3	0.459648
3	0	2772.8	0.459647
3	0	2773.3	0.45965
3	0	2773.8	0.45965
3	0	2774.3	0.459651
3	0	2774.8	0.459651
3	0	2775.3	0.459654
3	0	2775.8	0.459655
3	0	2776.3	0.459662
3	0	2776.8	0.459663
3	0	2777.3	0.459667
3	0	2777.8	0.459669
3	0	2778.3	0.45967
3	0	2778.8	0.459672
3	0	2779.3	0.459673
3	0	2779.8	0.459675
3	0	2780.3	0.459676
3	0	2780.8	0.459675
3	0	2781.3	0.459677
3	0	2781.8	0.459679
3	0	2782.3	0.459679
3	0	2782.8	0.459681
3	0	2782.96	0.459681