File: Python/Data/RDE/240223-OCV-EIS-Fe2Fe3_5mM-HCl1M-225RPM-Ag_AgCl_BLF8-GC-RDE-1minRestVSEoc-3ppf-14p1mVAmplitude_01_OCV_C15.mpt
EC-Lab ASCII FILE
Nb header lines : 47

Open Circuit Voltage

Run on channel : 15 (SN 19485)
User :
Electrode connection : standard
Potential control : Ewe
Ewe ctrl range : min = -1.00 V, max = 1.00 V
Ewe,I filtering : 50 kHz
Safety Limits :
	Do not start on E overload
Channel : Floating
Acquisition started on : 02/23/2024 15:54:32.363
Loaded Setting File :  NONE
Saved on :
	File : 240223-OCV-EIS-Fe2Fe3_5mM-HCl1M-225RPM-Ag_AgCl_BLF8-GC-RDE-1minRestVSEoc-3ppf-14p1mVAmplitude_01_OCV_C15.mpr
	Directory : C:\Data\mathias\RDE-RPM-variation\
	Host : 192.168.0.1
Device : VMP-300 (SN 0826)
Address : USB
EC-Lab for windows v11.52 (software)
Internet server v11.52 (firmware)
Command interpretor v11.52 (firmware)
Electrode material :
Initial state :
Electrolyte :
Comments :
Cable : special
Reference electrode : SCE Saturated Calomel Electrode (0.241 V)
Electrode surface area : 0.001 cm²
Characteristic mass : 0.001 g
Equivalent Weight : 0.000 g/eq.
Density : 0.000 g/cm3
Volume (V) : 0.001 cm³
Record EIS quality indicators
Cycle Definition : Charge/Discharge alternance
tR (h:m:s)          0:01:0.0000
dER/dt (mV/h)       1.0
record              <Ewe>
dER (mV)            0.00
dtR (s)             0.5000
E range min (V)     -1.000
E range max (V)     1.000

mode	error	time/s	<Ewe/V>
3	0	0.5	0.459667
3	0	1	0.459665
3	0	1.5	0.459663
3	0	2	0.459667
3	0	2.5	0.459667
3	0	3	0.459669
3	0	3.5	0.459666
3	0	4	0.459667
3	0	4.5	0.459668
3	0	5	0.459667
3	0	5.5	0.459665
3	0	6	0.459667
3	0	6.5	0.459671
3	0	7	0.459673
3	0	7.5	0.459673
3	0	8	0.459674
3	0	8.5	0.459674
3	0	9	0.459672
3	0	9.5	0.459673
3	0	10	0.459674
3	0	10.5	0.459673
3	0	11	0.459674
3	0	11.5	0.459673
3	0	12	0.459672
3	0	12.5	0.459671
3	0	13	0.459669
3	0	13.5	0.459668
3	0	14	0.459668
3	0	14.5	0.459666
3	0	15	0.459665
3	0	15.5	0.45967
3	0	16	0.45967
3	0	16.5	0.459672
3	0	17	0.45967
3	0	17.5	0.459666
3	0	18	0.459665
3	0	18.5	0.459664
3	0	19	0.459666
3	0	19.5	0.459665
3	0	20	0.459663
3	0	20.5	0.459662
3	0	21	0.459662
3	0	21.5	0.45966
3	0	22	0.459659
3	0	22.5	0.45966
3	0	23	0.459664
3	0	23.5	0.459664
3	0	24	0.459668
3	0	24.5	0.459665
3	0	25	0.459665
3	0	25.5	0.459666
3	0	26	0.459666
3	0	26.5	0.459667
3	0	27	0.459666
3	0	27.5	0.459667
3	0	28	0.459669
3	0	28.5	0.459669
3	0	29	0.459671
3	0	29.5	0.459671
3	0	30	0.459668
3	0	30.5	0.459667
3	0	31	0.459672
3	0	31.5	0.459671
3	0	32	0.459674
3	0	32.5	0.459671
3	0	33	0.459667
3	0	33.5	0.459665
3	0	34	0.459665
3	0	34.5	0.459665
3	0	35	0.459666
3	0	35.5	0.459665
3	0	36	0.459661
3	0	36.5	0.459659
3	0	37	0.459661
3	0	37.5	0.459659
3	0	38	0.459661
3	0	38.5	0.459662
3	0	39	0.459661
3	0	39.5	0.459657
3	0	40	0.459658
3	0	40.5	0.459661
3	0	41	0.459662
3	0	41.5	0.459662
3	0	42	0.459663
3	0	42.5	0.459659
3	0	43	0.459645
3	0	43.5	0.459649
3	0	44	0.459656
3	0	44.5	0.459658
3	0	45	0.459658
3	0	45.5	0.45966
3	0	46	0.459663
3	0	46.5	0.459665
3	0	47	0.459666
3	0	47.5	0.459665
3	0	48	0.459665
3	0	48.5	0.459662
3	0	49	0.45966
3	0	49.5	0.45966
3	0	50	0.459659
3	0	50.5	0.459659
3	0	51	0.459659
3	0	51.5	0.459658
3	0	52	0.459656
3	0	52.5	0.459654
3	0	53	0.459656
3	0	53.5	0.459659
3	0	54	0.459658
3	0	54.5	0.459658
3	0	55	0.459659
3	0	55.5	0.459659
3	0	56	0.459657
3	0	56.5	0.459657
3	0	56.5764	0.45966