File: Python/Data/RDE/240223-OCV-EIS-Fe2Fe3_5mM-HCl1M-1225RPM-Ag_AgCl_BLF8-GC-RDE-1minRestVSEoc-3ppf-14p1mVAmplitude_04_PEIS_C15.mpt
EC-Lab ASCII FILE
Nb header lines : 67

Potentio Electrochemical Impedance Spectroscopy

Run on channel : 15 (SN 19485)
User :
Electrode connection : standard
Potential control : Ewe
Ewe ctrl range : min = -1.00 V, max = 1.00 V
Ewe,I filtering : 50 kHz
Safety Limits :
	Do not start on E overload
Channel : Floating
Acquisition started on : 02/23/2024 14:49:54.683
Loaded Setting File :  NONE
Saved on :
	File : 240223-OCV-EIS-Fe2Fe3_5mM-HCl1M-1225RPM-Ag_AgCl_BLF8-GC-RDE-1minRestVSEoc-3ppf-14p1mVAmplitude_04_PEIS_C15.mpr
	Directory : C:\Data\mathias\RDE-RPM-variation\
	Host : 192.168.0.1
Device : VMP-300 (SN 0826)
Address : USB
EC-Lab for windows v11.52 (software)
Internet server v11.52 (firmware)
Command interpretor v11.52 (firmware)
Electrode material :
Initial state :
Electrolyte :
Comments :
Cable : special
Reference electrode : SCE Saturated Calomel Electrode (0.241 V)
Electrode surface area : 0.001 cm²
Characteristic mass : 0.001 g
Equivalent Weight : 0.000 g/eq.
Density : 0.000 g/cm3
Volume (V) : 0.001 cm³
Record EIS quality indicators
Cycle Definition : Charge/Discharge alternance
Mode                Single sine
E (V)               0.0000
vs.                 Eoc
tE (h:m:s)          0:01:0.0000
record              0
dI                  0.000
unit dI             mA
dt (s)              0.000
fi                  1.000
unit fi             MHz
ff                  100.000
unit ff             mHz
Nd                  10
Points              per decade
spacing             Logarithmic
Va (mV)             14.1
pw                  0.10
Na                  3
corr                0
E range min (V)     -1.000
E range max (V)     1.000
I Range             Auto
Bandwidth           8
nc cycles           0
goto Ns'            0
nr cycles           0
inc. cycle          1

freq/Hz	Re(Z)/Ohm	-Im(Z)/Ohm	|Z|/Ohm	Phase(Z)/deg	time/s	<Ewe>/V	<I>/mA	Cs/µF	Cp/µF	cycle number	I Range	|Ewe|/V	|I|/A	Ns	(Q-Qo)/mA.h	THD Ewe/%	NSD Ewe/%	NSR Ewe/%	|Ewe h2|/V	|Ewe h3|/V	|Ewe h4|/V	|Ewe h5|/V	|Ewe h6|/V	|Ewe h7|/V	THD I/%	NSD I/%	NSR I/%	|I h2|/A	|I h3|/A	|I h4|/A	|I h5|/A	|I h6|/A	|I h7|/A	Re(Y)/Ohm-1	Im(Y)/Ohm-1	|Y|/Ohm-1	Phase(Y)/deg	Re(C)/nF	Im(C)/nF	|C|/nF	Phase(C)/deg	Re(M)	Im(M)	|M|	Phase(M)/deg	Re(Permittivity)	Im(Permittivity)	|Permittivity|	Phase(Permittivity)/deg	Re(Resistivity)/Ohm.cm	Im(Resistivity)/Ohm.cm	|Resistivity|/Ohm.cm	Phase(Resistivity)/deg	Re(Conductivity)/mS/cm	Im(Conductivity)/mS/cm	|Conductivity|/mS/cm	Phase(Conductivity)/deg	Tan(Delta)	Loss Angle(Delta)/deg	dq/mA.h
1.00002e+06	3.54239	4.06833	5.39443	-48.9531	599.17	0.459656	-0.0113283	0.0391197	0.0222504	1	38	0.0111288	0.00206303	0	-2.83842e-06	-1	-1	-1	0	0	0	0	0	0	-1	-1	-1	0	0	0	0	0	0	0.121732	0.139806	0.185376	48.9531	22.2504	19.3739	29.503	-41.0469	0.0000000E+000	0.0000000E+000	0.0000000E+000	41.0469	0.0000000E+000	0.0000000E+000	0.0000000E+000	-41.0469	0.0000000E+000	0.0000000E+000	0.0000000E+000	-48.9531	0.0000000E+000	0.0000000E+000	0.0000000E+000	48.9531	0.870723	41.0468	-2.83842e-06
316230	3.44841	1.34933	3.70301	-21.37	604.771	0.459695	-0.00215445	0.37299	0.0495254	1	38	0.0145732	0.00393551	0	-7.9556e-06	-1	-1	-1	0	0	0	0	0	0	-1	-1	-1	0	0	0	0	0	0	0.251484	0.0984036	0.270051	21.37	49.5254	126.569	135.914	-68.63	0.0000000E+000	0.0000000E+000	0.0000000E+000	68.63	0.0000000E+000	0.0000000E+000	0.0000000E+000	-68.63	0.0000000E+000	0.0000000E+000	0.0000000E+000	-21.37	0.0000000E+000	0.0000000E+000	0.0000000E+000	21.37	2.55564	68.63	3.28723e-06
100004	3.42278	1.04539	3.57887	-16.9839	610.507	0.459678	-0.00175041	1.52238	0.129895	1	38	0.0145699	0.00407108	0	-7.08606e-06	0.449409	0.317141	8.89515	2.06822e-05	1.78303e-05	2.17635e-05	2.10157e-05	3.55176e-05	3.17588e-05	0.0632215	0.023742	0.693787	1.79056e-06	1.2683e-06	8.50132e-07	3.2267e-07	4.93454e-07	6.90101e-07	0.267232	0.0816187	0.279418	16.9839	129.895	425.297	444.691	-73.0161	0.0000000E+000	0.0000000E+000	0.0000000E+000	73.0161	0.0000000E+000	0.0000000E+000	0.0000000E+000	-73.0161	0.0000000E+000	0.0000000E+000	0.0000000E+000	-16.9839	0.0000000E+000	0.0000000E+000	0.0000000E+000	16.9839	3.27415	73.0161	-2.01948e-06
31621.1	3.61681	2.12051	4.1926	-30.3829	616.241	0.459672	-0.0025827	2.37357	0.60718	1	38	0.0146697	0.00349896	0	-9.54467e-06	0.507433	0.210228	9.01318	3.09724e-05	3.50939e-05	1.54989e-05	3.84386e-05	2.00236e-05	2.75278e-05	0.0623646	0.0711498	0.822559	5.92163e-07	1.28037e-06	8.96126e-07	3.73165e-07	9.27327e-07	4.52763e-07	0.205759	0.120635	0.238516	30.3829	607.18	1035.62	1200.49	-59.6171	0.0000000E+000	0.0000000E+000	0.0000000E+000	59.6171	0.0000000E+000	0.0000000E+000	0.0000000E+000	-59.6171	0.0000000E+000	0.0000000E+000	0.0000000E+000	-30.3829	0.0000000E+000	0.0000000E+000	0.0000000E+000	30.3829	1.70563	59.6171	-5.04925e-06
10002.2	4.22416	5.75922	7.14228	-53.7414	621.975	0.459689	-0.00152704	2.76287	1.79644	1	38	0.0146554	0.00205192	0	-3.8559e-06	0.561193	0.222762	8.92734	3.02016e-05	4.16277e-05	3.17343e-05	3.01879e-05	2.70925e-05	2.83221e-05	0.209932	0.0524349	1.41618	3.90386e-06	8.63105e-07	7.50049e-07	9.0797e-07	5.49512e-07	6.22286e-07	0.0828069	0.112899	0.140011	53.7414	1796.44	1317.62	2227.85	-36.2586	0.0000000E+000	0.0000000E+000	0.0000000E+000	36.2586	0.0000000E+000	0.0000000E+000	0.0000000E+000	-36.2586	0.0000000E+000	0.0000000E+000	0.0000000E+000	-53.7414	0.0000000E+000	0.0000000E+000	0.0000000E+000	53.7414	0.73346	36.2586	-4.77355e-06
3163.04	6.35385	16.0073	17.2222	-68.3501	627.756	0.459535	-0.00220482	3.14339	2.71554	1	38	0.0139791	0.000811691	0	-5.94978e-06	0.49328	0.356403	9.14776	1.79566e-05	2.88429e-05	2.24931e-05	2.88669e-05	3.17145e-05	2.67572e-05	0.778457	0.117217	3.46826	5.76552e-06	2.26811e-06	5.01764e-07	5.83091e-07	6.90542e-07	4.45407e-07	0.021422	0.0539685	0.0580647	68.3501	2715.54	1077.89	2921.64	-21.6499	0.0000000E+000	0.0000000E+000	0.0000000E+000	21.6499	0.0000000E+000	0.0000000E+000	0.0000000E+000	-21.6499	0.0000000E+000	0.0000000E+000	0.0000000E+000	-68.3501	0.0000000E+000	0.0000000E+000	0.0000000E+000	68.3501	0.396935	21.6499	-1.95541e-07
999.682	13.5643	43.2545	45.3314	-72.5889	633.54	0.459537	-0.000417326	3.68068	3.35112	1	39	0.0140833	0.000310675	0	-7.98839e-06	0.538225	0.270905	9.07472	1.13497e-05	2.99068e-05	2.34925e-05	4.11156e-05	2.99734e-05	2.91776e-05	1.18676	0.157494	4.27961	2.88619e-06	2.05934e-06	2.20945e-07	8.10279e-07	2.6314e-07	4.15943e-07	0.00660084	0.021049	0.0220597	72.5889	3351.12	1050.89	3512.04	-17.4111	0.0000000E+000	0.0000000E+000	0.0000000E+000	17.4111	0.0000000E+000	0.0000000E+000	0.0000000E+000	-17.4111	0.0000000E+000	0.0000000E+000	0.0000000E+000	-72.5889	0.0000000E+000	0.0000000E+000	0.0000000E+000	72.5889	0.313594	17.4111	2.16078e-08
316.316	35.7663	112.143	117.708	-72.3107	639.068	0.459562	-0.000176715	4.48671	4.07246	1	39	0.0130073	0.000110505	0	-8.22119e-06	0.521157	0.266157	9.69174	2.4011e-05	2.64916e-05	1.75975e-05	2.47856e-05	2.82248e-05	2.83901e-05	1.04422	0.361025	11.863	8.05858e-07	3.9409e-07	1.63085e-07	4.85308e-07	1.70153e-07	2.86017e-07	0.00258143	0.0080939	0.00849559	72.3107	4072.46	1298.85	4274.57	-17.6893	0.0000000E+000	0.0000000E+000	0.0000000E+000	17.6893	0.0000000E+000	0.0000000E+000	0.0000000E+000	-17.6893	0.0000000E+000	0.0000000E+000	0.0000000E+000	-72.3107	0.0000000E+000	0.0000000E+000	0.0000000E+000	72.3107	0.318936	17.6893	-3.63675e-09
99.9682	104.488	280.43	299.264	-69.5647	644.829	0.459578	-9.7532e-05	5.67719	4.98511	1	40	0.0131064	4.37956e-05	0	-8.38976e-06	1.04319	0.432834	15.2638	5.16626e-05	4.94109e-05	4.37895e-05	7.79085e-05	5.69302e-05	3.77007e-05	1.03301	0.193782	6.0434	3.6018e-07	1.68331e-07	6.46506e-08	1.62719e-07	6.53619e-08	5.12217e-08	0.00116669	0.00313124	0.00334153	69.5647	4985.11	1857.44	5319.91	-20.4353	0.0000000E+000	0.0000000E+000	0.0000000E+000	20.4353	0.0000000E+000	0.0000000E+000	0.0000000E+000	-20.4353	0.0000000E+000	0.0000000E+000	0.0000000E+000	-69.5647	0.0000000E+000	0.0000000E+000	0.0000000E+000	69.5647	0.372598	20.4353	-6.37353e-08
31.6296	322.991	654.033	729.44	-63.7178	650.158	0.459566	-8.00421e-05	7.69356	6.18511	1	40	0.0129166	1.77075e-05	0	-8.52246e-06	0.689774	0.350985	15.0177	2.78728e-05	3.53557e-05	2.84171e-05	4.5683e-05	3.16288e-05	3.34368e-05	1.16039	0.30447	14.3769	1.06748e-07	1.19987e-07	3.32932e-08	8.29392e-08	4.68976e-08	6.18593e-08	0.000607032	0.0012292	0.00137092	63.7178	6185.11	3054.49	6898.23	-26.2822	0.0000000E+000	0.0000000E+000	0.0000000E+000	26.2822	0.0000000E+000	0.0000000E+000	0.0000000E+000	-26.2822	0.0000000E+000	0.0000000E+000	0.0000000E+000	-63.7178	0.0000000E+000	0.0000000E+000	0.0000000E+000	63.7178	0.493845	26.2823	-3.97953e-08
9.99682	999.684	1283.82	1627.13	-52.0929	655.859	0.459556	-7.52895e-05	12.4009	7.71998	1	41	0.0128888	7.92116e-06	0	-8.67885e-06	1.14509	0.691509	19.4916	9.19861e-05	3.16616e-05	5.41573e-05	5.8082e-05	3.76459e-05	5.2708e-05	0.782401	0.179759	6.25712	4.92808e-08	3.06008e-08	1.16597e-08	1.23785e-08	3.77612e-09	7.90161e-09	0.000377586	0.000484906	0.000614577	52.0929	7719.98	6011.38	9784.42	-37.9071	0.0000000E+000	0.0000000E+000	0.0000000E+000	37.9071	0.0000000E+000	0.0000000E+000	0.0000000E+000	-37.9071	0.0000000E+000	0.0000000E+000	0.0000000E+000	-52.0929	0.0000000E+000	0.0000000E+000	0.0000000E+000	52.0929	0.778679	37.9071	-8.36349e-08
3.16296	2417.82	1608.15	2903.79	-33.6289	664.301	0.459593	-7.24953e-05	31.2896	9.59675	1	41	0.0128897	4.43894e-06	0	-8.78888e-06	0.470862	0.267121	8.68439	1.09759e-05	1.52155e-05	2.87248e-05	3.57509e-05	2.04503e-05	1.96918e-05	0.884385	0.163153	5.28991	3.34341e-08	1.52525e-08	4.8266e-09	9.14968e-09	5.31064e-09	3.96403e-09	0.000286743	0.00019072	0.000344378	33.6289	9596.75	14428.5	17328.5	-56.3711	0.0000000E+000	0.0000000E+000	0.0000000E+000	56.3711	0.0000000E+000	0.0000000E+000	0.0000000E+000	-56.3711	0.0000000E+000	0.0000000E+000	0.0000000E+000	-33.6289	0.0000000E+000	0.0000000E+000	0.0000000E+000	33.6289	1.50347	56.3711	5.00943e-08
1.00006	3635.56	1113.37	3802.22	-17.0269	688.05	0.459571	-7.28399e-05	142.94	12.2562	1	42	0.0128682	3.38438e-06	0	-9.50807e-06	0.234197	0.132717	4.78656	9.59839e-06	9.30221e-06	1.13778e-05	1.09825e-05	1.46259e-05	1.02228e-05	0.742016	0.0318013	1.35968	2.24875e-08	1.04513e-08	4.21736e-10	3.88448e-09	3.26832e-10	3.20924e-10	0.000251476	7.7013e-05	0.000263004	17.0269	12256.2	40021.2	41855.8	-72.9731	0.0000000E+000	0.0000000E+000	0.0000000E+000	72.9731	0.0000000E+000	0.0000000E+000	0.0000000E+000	-72.9731	0.0000000E+000	0.0000000E+000	0.0000000E+000	-17.0269	0.0000000E+000	0.0000000E+000	0.0000000E+000	17.0269	3.26537	72.9731	-4.14294e-07
0.316193	4186.97	571.294	4225.77	-7.76978	753.846	0.45957	-7.40094e-05	881.065	16.1034	1	42	0.0128659	3.04462e-06	0	-1.03033e-05	0.160413	0.0842328	2.61265	6.56897e-06	7.55957e-06	6.75488e-06	9.56488e-06	6.15578e-06	8.54416e-06	0.758244	0.0463517	1.50754	2.1082e-08	8.9905e-09	3.2801e-10	2.71189e-09	2.90228e-10	1.70314e-10	0.000234471	3.19925e-05	0.000236643	7.76978	16103.4	118020	119114	-82.2302	0.0000000E+000	0.0000000E+000	0.0000000E+000	82.2302	0.0000000E+000	0.0000000E+000	0.0000000E+000	-82.2302	0.0000000E+000	0.0000000E+000	0.0000000E+000	-7.76978	0.0000000E+000	0.0000000E+000	0.0000000E+000	7.76978	7.32892	82.2302	7.33163e-08
0.0999518	4410.89	252.984	4418.14	-3.28257	958.428	0.459584	-7.5617e-05	6294.13	20.6369	1	42	0.0128645	2.91175e-06	0	-1.51537e-05	0.110169	0.0733576	1.51817	3.40878e-06	9.18614e-06	3.35694e-06	7.26222e-06	2.21966e-06	2.98231e-06	0.779826	0.0479882	1.51822	2.09867e-08	8.33216e-09	1.74952e-10	2.33922e-09	2.22136e-10	2.86063e-10	0.000225968	1.29603e-05	0.00022634	3.28257	20636.9	359813	360405	-86.7174	0.0000000E+000	0.0000000E+000	0.0000000E+000	86.7174	0.0000000E+000	0.0000000E+000	0.0000000E+000	-86.7174	0.0000000E+000	0.0000000E+000	0.0000000E+000	-3.28257	0.0000000E+000	0.0000000E+000	0.0000000E+000	3.28257	17.4354	86.7174	-5.59999e-07