File: Python/Experiments/IRFB/240507-Cloth-1p5M_FeCl2FeCl3-1M_HCl/Data/240507-EIS-Cloth-1p5M_FeCl2FeCl3-1M_HCl-Wamup_10mLmin-4xFlowRate-20mHz_10ppd_07_PEIS_C15.mpt
EC-Lab ASCII FILE
Nb header lines : 75

Potentio Electrochemical Impedance Spectroscopy

Run on channel : 15 (SN 19485)
User :
Electrode connection : standard
Potential control : Ewe
Ewe ctrl range : min = -1.00 V, max = 1.00 V
Ewe,I filtering : 50 kHz
Safety Limits :
	Do not start on E overload
Channel : Grounded
Acquisition started on : 05/08/2024 12:03:59.706
Loaded Setting File :  C:\Data\mathias\IRFB\240503-EIS-Felt-1p5M_FeCl2FeCl3-1M_HCl-Wamup_10mLmin-4xFlowRate-20mHz_10ppd.mps
Saved on :
	File : 240507-EIS-Cloth-1p5M_FeCl2FeCl3-1M_HCl-Wamup_10mLmin-4xFlowRate-20mHz_10ppd_07_PEIS_C15.mpr
	Directory : C:\Data\mathias\IRFB\
	Host : 192.168.0.1
Device : VMP-300 (SN 0826)
Address : USB
EC-Lab for windows v11.52 (software)
Internet server v11.52 (firmware)
Command interpretor v11.52 (firmware)
Electrode material :
Initial state :
Electrolyte :
Comments :
Cable : special
Electrode surface area : 0.001 cm²
Characteristic mass : 0.001 g
Equivalent Weight : 0.000 g/eq.
Density : 0.000 g/cm3
Volume (V) : 0.001 cm³
Record EIS quality indicators
Cycle Definition : Charge/Discharge alternance
External device configuration :
   device type : Other
   device name : Other
   Analog OUT :
      mode : E/V
      unit : KNF Pump/ml/min
      max : 120.000 at 5.000 V
      min : 0.000 at 0.000 V
      current : 4.300
Mode                Single sine
E (V)               0.0000
vs.                 Eoc
tE (h:m:s)          0:00:0.0000
record              0
dI                  0.000
unit dI             mA
dt (s)              0.000
fi                  220.000
unit fi             kHz
ff                  20.000
unit ff             mHz
Nd                  10
Points              per decade
spacing             Logarithmic
Va (mV)             5.0
pw                  0.10
Na                  3
corr                0
E range min (V)     -1.000
E range max (V)     1.000
I Range             Auto
Bandwidth           8
nc cycles           2
goto Ns'            0
nr cycles           0
inc. cycle          0

freq/Hz	Re(Z)/Ohm	-Im(Z)/Ohm	|Z|/Ohm	Phase(Z)/deg	time/s	<Ewe>/V	<I>/mA	Cs/µF	Cp/µF	cycle number	I Range	|Ewe|/V	|I|/A	Ns	(Q-Qo)/mA.h	Analog OUT/V	THD Ewe/%	NSD Ewe/%	NSR Ewe/%	|Ewe h2|/V	|Ewe h3|/V	|Ewe h4|/V	|Ewe h5|/V	|Ewe h6|/V	|Ewe h7|/V	THD I/%	NSD I/%	NSR I/%	|I h2|/A	|I h3|/A	|I h4|/A	|I h5|/A	|I h6|/A	|I h7|/A	Re(Y)/Ohm-1	Im(Y)/Ohm-1	|Y|/Ohm-1	Phase(Y)/deg	Re(C)/nF	Im(C)/nF	|C|/nF	Phase(C)/deg	Re(M)	Im(M)	|M|	Phase(M)/deg	Re(Permittivity)	Im(Permittivity)	|Permittivity|	Phase(Permittivity)/deg	Re(Resistivity)/Ohm.cm	Im(Resistivity)/Ohm.cm	|Resistivity|/Ohm.cm	Phase(Resistivity)/deg	Re(Conductivity)/mS/cm	Im(Conductivity)/mS/cm	|Conductivity|/mS/cm	Phase(Conductivity)/deg	Tan(Delta)	Loss Angle(Delta)/deg	dq/mA.h
220003	0.0809298	-0.0223168	0.0839504	15.4164	106650	0.000214223	-0.260188	-32.4161	-2.29075	1	37	0.00298617	0.0355707	0	-0.000135302	10.8	-1	-1	-1	0	0	0	0	0	0	-1	-1	-1	0	0	0	0	0	0	11.4832	-3.16655	11.9118	-15.4164	-2290.75	8307.21	8617.27	-105.416	0.0000000E+000	0.0000000E+000	0.0000000E+000	105.416	0.0000000E+000	0.0000000E+000	0.0000000E+000	-105.416	0.0000000E+000	0.0000000E+000	0.0000000E+000	15.4164	0.0000000E+000	0.0000000E+000	0.0000000E+000	-15.4164	3.62641	74.5835	-0.000135302
8590.41	0.112479	0.021384	0.114494	-10.7643	106667	0.000104131	-0.887797	866.397	30.2226	1	37	0.00527253	0.0460508	0	-0.00191036	10.8	0.286951	0.222525	5.90499	5.18063e-06	7.26745e-06	6.02483e-06	5.67315e-06	7.1359e-06	3.86867e-06	0.108451	0.0608968	0.454063	2.90133e-06	4.77881e-05	5.92117e-06	8.94763e-06	5.47508e-06	4.84718e-06	8.5804	1.63127	8.73409	10.7643	30222.6	158970	161817	-79.2356	0.0000000E+000	0.0000000E+000	0.0000000E+000	79.2356	0.0000000E+000	0.0000000E+000	0.0000000E+000	-79.2356	0.0000000E+000	0.0000000E+000	0.0000000E+000	-10.7643	0.0000000E+000	0.0000000E+000	0.0000000E+000	10.7643	5.25996	79.2356	-0.000286828
335.537	0.155148	0.00822883	0.155366	-3.03604	106685	0.000114533	-0.837081	57642.4	161.698	1	37	0.00515269	0.0331648	0	-0.00604806	10.8	0.358773	0.177936	6.1512	5.71288e-06	5.64333e-06	8.79981e-06	7.07011e-06	6.08536e-06	7.5454e-06	0.0803529	0.0216616	0.629212	4.30188e-06	1.97012e-05	5.77863e-06	1.40675e-05	6.8321e-06	3.88197e-06	6.42738	0.340899	6.43641	3.03604	161698	3.04869e+06	3.05298e+06	-86.964	0.0000000E+000	0.0000000E+000	0.0000000E+000	86.964	0.0000000E+000	0.0000000E+000	0.0000000E+000	-86.964	0.0000000E+000	0.0000000E+000	0.0000000E+000	-3.03604	0.0000000E+000	0.0000000E+000	0.0000000E+000	3.03604	18.8542	86.964	-0.000283407
13.1083	0.160559	0.00265547	0.160581	-0.947523	106700	0.00012705	-0.914774	4.57229e+06	1250.34	1	37	0.00541472	0.0337195	0	-0.00988765	10.8	0.334985	0.0994056	3.95661	5.71421e-06	1.15761e-05	4.1394e-06	7.72148e-06	5.90339e-06	3.84658e-06	0.140896	0.131218	0.450731	6.70536e-06	2.92299e-05	2.61538e-05	2.46408e-05	4.89008e-06	4.40558e-06	6.22653	0.10298	6.22738	0.947523	1.25034e+06	7.55999e+07	7.56103e+07	-89.0525	0.0000000E+000	0.0000000E+000	0.0000000E+000	89.0525	0.0000000E+000	0.0000000E+000	0.0000000E+000	-89.0525	0.0000000E+000	0.0000000E+000	0.0000000E+000	-0.947523	0.0000000E+000	0.0000000E+000	0.0000000E+000	0.947523	60.4635	89.0525	-0.000139123
0.511825	0.170224	0.0135656	0.170763	-4.55644	106761	0.00012861	-0.860023	2.29223e+07	144660	1	37	0.00541105	0.0316874	0	-0.0257115	10.8	0.122141	0.0573248	0.892074	1.91023e-06	4.77489e-06	1.2755e-06	3.21285e-06	9.74901e-07	1.65336e-06	0.145116	0.117534	0.338652	1.02775e-05	3.27811e-05	6.72419e-06	2.8404e-05	4.84031e-06	4.10566e-06	5.83755	0.465211	5.85605	4.55644	1.4466e+08	1.81522e+09	1.82097e+09	-85.4436	0.0000000E+000	0.0000000E+000	0.0000000E+000	85.4436	0.0000000E+000	0.0000000E+000	0.0000000E+000	-85.4436	0.0000000E+000	0.0000000E+000	0.0000000E+000	-4.55644	0.0000000E+000	0.0000000E+000	0.0000000E+000	4.55644	12.5482	85.4436	-0.00120831
0.0199946	0.199175	0.00439938	0.199224	-1.26534	108184	0.000118346	-0.865912	1.80932e+09	882299	1	37	0.00540189	0.0271146	0	-0.316208	10.8	0.116694	0.116649	0.226494	1.58079e-06	5.02763e-06	1.5647e-06	2.54772e-06	7.35326e-07	4.39771e-07	0.118193	0.226334	0.262406	6.65594e-06	1.92007e-05	1.02913e-05	2.0199e-05	6.75631e-06	3.13859e-06	5.01825	0.110843	5.01948	1.26534	8.823e+08	3.99448e+10	3.99545e+10	-88.7347	0.0000000E+000	0.0000000E+000	0.0000000E+000	88.7347	0.0000000E+000	0.0000000E+000	0.0000000E+000	-88.7347	0.0000000E+000	0.0000000E+000	0.0000000E+000	-1.26534	0.0000000E+000	0.0000000E+000	0.0000000E+000	1.26534	45.2735	88.7347	-0.0378176
10837.3	0.108832	0.0201325	0.110678	-10.4805	108200	0.000206823	-0.412856	729.461	24.1363	2	37	0.00517372	0.0467455	0	-0.319157	10.8	0.312067	0.163691	6.02226	5.35676e-06	4.53376e-06	5.76749e-06	6.92945e-06	3.93902e-06	7.5157e-06	0.125539	0.035807	0.430395	5.05525e-06	3.5907e-05	5.19753e-06	5.04709e-06	4.05686e-06	4.50248e-05	8.88446	1.64351	9.03519	10.4805	24136.3	130476	132690	-79.5195	0.0000000E+000	0.0000000E+000	0.0000000E+000	79.5195	0.0000000E+000	0.0000000E+000	0.0000000E+000	-79.5195	0.0000000E+000	0.0000000E+000	0.0000000E+000	-10.4805	0.0000000E+000	0.0000000E+000	0.0000000E+000	10.4805	5.40578	79.5195	-6.43136e-05
423.239	0.15503	0.00998664	0.155351	-3.68576	108218	0.000111103	-0.92997	37654.3	155.606	2	37	0.00502041	0.0323165	0	-0.323981	10.8	0.296057	0.135823	6.24923	4.62746e-06	3.88115e-06	7.27655e-06	6.79574e-06	4.13985e-06	6.84734e-06	0.0738038	0.0235264	0.652299	4.43596e-06	1.81145e-05	7.10968e-06	9.95266e-06	4.61763e-06	4.13565e-06	6.42372	0.413801	6.43704	3.68576	155606	2.41558e+06	2.42058e+06	-86.3142	0.0000000E+000	0.0000000E+000	0.0000000E+000	86.3142	0.0000000E+000	0.0000000E+000	0.0000000E+000	-86.3142	0.0000000E+000	0.0000000E+000	0.0000000E+000	-3.68576	0.0000000E+000	0.0000000E+000	0.0000000E+000	3.68576	15.5237	86.3142	-0.00040753
16.5286	0.161063	0.00269125	0.161085	-0.957286	108234	0.000106499	-0.961479	3.57792e+06	998.684	2	37	0.00541554	0.0336191	0	-0.327982	10.8	0.272376	0.179987	5.71952	3.4991e-06	4.55888e-06	6.34858e-06	6.85814e-06	7.40956e-06	3.29418e-06	0.209202	0.070877	0.570785	1.03814e-05	6.41948e-05	7.94934e-06	2.28048e-05	5.90947e-06	6.29417e-06	6.20704	0.103716	6.2079	0.957286	998681	5.9768e+07	5.97763e+07	-89.0427	0.0000000E+000	0.0000000E+000	0.0000000E+000	89.0427	0.0000000E+000	0.0000000E+000	0.0000000E+000	-89.0427	0.0000000E+000	0.0000000E+000	0.0000000E+000	-0.957286	0.0000000E+000	0.0000000E+000	0.0000000E+000	0.957286	59.8467	89.0427	-0.000389249
0.645874	0.168997	0.0114906	0.169388	-3.8897	108284	0.000110281	-0.954303	2.14452e+07	98684.8	2	37	0.00541141	0.0319469	0	-0.341419	10.8	0.116754	0.0755439	1.01745	1.20898e-06	4.83622e-06	8.20391e-07	2.45972e-06	1.85641e-06	1.55631e-06	0.151781	0.155909	0.344807	1.25564e-05	3.34407e-05	8.17613e-06	2.98089e-05	4.95784e-06	4.3785e-06	5.89002	0.400477	5.90362	3.8897	9.86847e+07	1.45141e+09	1.45476e+09	-86.1103	0.0000000E+000	0.0000000E+000	0.0000000E+000	86.1103	0.0000000E+000	0.0000000E+000	0.0000000E+000	-86.1103	0.0000000E+000	0.0000000E+000	0.0000000E+000	-3.8897	0.0000000E+000	0.0000000E+000	0.0000000E+000	3.8897	14.7075	86.1103	-0.00140933
0.0252177	0.199467	0.00507843	0.199531	-1.45844	109414	0.00012544	-0.899427	1.24276e+09	805050	2	37	0.00540462	0.0270866	0	-0.580314	10.8	0.105161	0.102574	0.242647	1.34651e-06	4.59418e-06	6.56505e-07	2.25691e-06	1.33421e-06	7.89488e-07	0.14358	0.212915	0.268572	9.49574e-06	2.35259e-05	5.78379e-06	2.5316e-05	1.00717e-05	6.72515e-06	5.01013	0.127558	5.01175	1.45844	8.05048e+08	3.16201e+10	3.16304e+10	-88.5416	0.0000000E+000	0.0000000E+000	0.0000000E+000	88.5416	0.0000000E+000	0.0000000E+000	0.0000000E+000	-88.5416	0.0000000E+000	0.0000000E+000	0.0000000E+000	-1.45844	0.0000000E+000	0.0000000E+000	0.0000000E+000	1.45844	39.2772	88.5416	-0.054524
13658	0.105596	0.0186197	0.107225	-10.0002	109734	0.000198137	-0.232233	625.836	18.872	3	37	0.00517733	0.0482847	0	-0.675897	10.8	0.325262	0.27025	6.04051	7.71395e-06	6.90168e-06	4.89477e-06	8.61674e-06	5.18649e-06	4.55596e-06	0.08682	0.0151561	0.433045	4.82763e-06	3.99346e-05	5.75295e-06	6.17834e-06	6.02011e-06	3.51118e-06	9.1845	1.61951	9.32619	10.0002	18872	107026	108677	-79.9998	0.0000000E+000	0.0000000E+000	0.0000000E+000	79.9998	0.0000000E+000	0.0000000E+000	0.0000000E+000	-79.9998	0.0000000E+000	0.0000000E+000	0.0000000E+000	-10.0002	0.0000000E+000	0.0000000E+000	0.0000000E+000	10.0002	5.67118	79.9998	-8.97084e-05
533.464	0.154336	0.0112767	0.154747	-4.17895	109752	9.29656e-05	-0.857703	26456.5	140.492	3	37	0.00535597	0.0346112	0	-0.680066	10.8	0.273988	0.137526	5.7951	4.63316e-06	4.75426e-06	6.0543e-06	6.27176e-06	6.53208e-06	5.14088e-06	0.0626667	0.0260698	0.598295	5.72911e-06	1.38194e-05	6.5384e-06	1.16887e-05	5.64306e-06	3.71682e-06	6.44498	0.470909	6.46216	4.17895	140492	1.92281e+06	1.92794e+06	-85.821	0.0000000E+000	0.0000000E+000	0.0000000E+000	85.821	0.0000000E+000	0.0000000E+000	0.0000000E+000	-85.821	0.0000000E+000	0.0000000E+000	0.0000000E+000	-4.17895	0.0000000E+000	0.0000000E+000	0.0000000E+000	4.17895	13.6862	85.821	-0.000292171
20.8333	0.161426	0.0027245	0.161449	-0.966929	109768	0.000110973	-0.808532	2.80399e+06	798.507	3	37	0.00510238	0.0316037	0	-0.683717	10.8	0.28639	0.169572	6.11397	7.82949e-06	9.13274e-06	3.65543e-06	2.09333e-06	2.92161e-06	5.17437e-06	0.124772	0.194651	0.620403	6.24432e-06	2.65088e-05	7.93372e-06	2.37027e-05	5.78937e-06	1.04675e-05	6.19303	0.104524	6.19392	0.966929	798505	4.73113e+07	4.73181e+07	-89.0331	0.0000000E+000	0.0000000E+000	0.0000000E+000	89.0331	0.0000000E+000	0.0000000E+000	0.0000000E+000	-89.0331	0.0000000E+000	0.0000000E+000	0.0000000E+000	-0.966929	0.0000000E+000	0.0000000E+000	0.0000000E+000	0.966929	59.2498	89.0331	-0.000219166
0.813551	0.168345	0.00966345	0.168622	-3.28533	109809	0.000120006	-0.780929	2.02443e+07	66487.6	3	37	0.00510085	0.0302503	0	-0.692779	10.8	0.0877183	0.061614	1.19894	1.03336e-06	2.63148e-06	1.39263e-06	1.79464e-06	9.46933e-07	1.66318e-06	0.132311	0.152228	0.369509	1.64403e-05	2.47818e-05	6.15347e-06	2.48726e-05	5.31563e-06	2.53952e-06	5.92069	0.339864	5.93044	3.28533	6.64876e+07	1.15826e+09	1.16017e+09	-86.7147	0.0000000E+000	0.0000000E+000	0.0000000E+000	86.7147	0.0000000E+000	0.0000000E+000	0.0000000E+000	-86.7147	0.0000000E+000	0.0000000E+000	0.0000000E+000	-3.28533	0.0000000E+000	0.0000000E+000	0.0000000E+000	3.28533	17.4208	86.7147	-0.00257462
0.0317924	0.199534	0.00600839	0.199624	-1.72478	110706	0.00012776	-0.799686	8.33178e+08	754794	3	37	0.00509326	0.0255142	0	-0.90652	10.8	0.0993935	0.124376	0.280295	1.77866e-06	3.62285e-06	1.03047e-06	2.45415e-06	5.94123e-07	6.74691e-07	0.138136	0.187396	0.298202	1.13782e-05	1.95184e-05	1.11408e-05	2.23022e-05	7.14544e-06	5.61061e-06	5.00715	0.150776	5.00942	1.72478	7.54793e+08	2.50661e+10	2.50774e+10	-88.2752	0.0000000E+000	0.0000000E+000	0.0000000E+000	88.2752	0.0000000E+000	0.0000000E+000	0.0000000E+000	-88.2752	0.0000000E+000	0.0000000E+000	0.0000000E+000	-1.72478	0.0000000E+000	0.0000000E+000	0.0000000E+000	1.72478	33.2091	88.2752	-0.0239172
0.0199946	0.200725	0.00438795	0.200773	-1.25232	111255	0.000126083	-0.848249	1.81404e+09	866483	3	37	0.00509334	0.0253687	0	-0.990577	10.8	0.11963	0.0673331	0.231483	2.80799e-06	4.45846e-06	1.3051e-06	2.18695e-06	6.81056e-07	1.10205e-06	0.157061	0.116965	0.261913	1.92872e-05	2.21349e-05	1.2371e-05	2.10188e-05	3.54414e-06	5.66132e-06	4.97957	0.108856	4.98076	1.25232	8.66485e+08	3.96369e+10	3.96463e+10	-88.7477	0.0000000E+000	0.0000000E+000	0.0000000E+000	88.7477	0.0000000E+000	0.0000000E+000	0.0000000E+000	-88.7477	0.0000000E+000	0.0000000E+000	0.0000000E+000	-1.25232	0.0000000E+000	0.0000000E+000	0.0000000E+000	1.25232	45.7445	88.7477	-0.0549717