File: Python/Experiments/IRFB/240507-Cloth-1p5M_FeCl2FeCl3-1M_HCl/Data/240507-EIS-Cloth-1p5M_FeCl2FeCl3-1M_HCl-Wamup_10mLmin-4xFlowRate-20mHz_10ppd_02_PEIS_C15.mpt
EC-Lab ASCII FILE
Nb header lines : 75

Potentio Electrochemical Impedance Spectroscopy

Run on channel : 15 (SN 19485)
User :
Electrode connection : standard
Potential control : Ewe
Ewe ctrl range : min = -1.00 V, max = 1.00 V
Ewe,I filtering : 50 kHz
Safety Limits :
	Do not start on E overload
Channel : Grounded
Acquisition started on : 05/08/2024 12:03:59.706
Loaded Setting File :  C:\Data\mathias\IRFB\240503-EIS-Felt-1p5M_FeCl2FeCl3-1M_HCl-Wamup_10mLmin-4xFlowRate-20mHz_10ppd.mps
Saved on :
	File : 240507-EIS-Cloth-1p5M_FeCl2FeCl3-1M_HCl-Wamup_10mLmin-4xFlowRate-20mHz_10ppd_02_PEIS_C15.mpr
	Directory : C:\Data\mathias\IRFB\
	Host : 192.168.0.1
Device : VMP-300 (SN 0826)
Address : USB
EC-Lab for windows v11.52 (software)
Internet server v11.52 (firmware)
Command interpretor v11.52 (firmware)
Electrode material :
Initial state :
Electrolyte :
Comments :
Cable : special
Electrode surface area : 0.001 cm²
Characteristic mass : 0.001 g
Equivalent Weight : 0.000 g/eq.
Density : 0.000 g/cm3
Volume (V) : 0.001 cm³
Record EIS quality indicators
Cycle Definition : Charge/Discharge alternance
External device configuration :
   device type : Other
   device name : Other
   Analog OUT :
      mode : E/V
      unit : KNF Pump/ml/min
      max : 120.000 at 5.000 V
      min : 0.000 at 0.000 V
      current : 4.300
Mode                Single sine
E (V)               0.0000
vs.                 Eoc
tE (h:m:s)          0:00:0.0000
record              0
dI                  0.000
unit dI             mA
dt (s)              0.000
fi                  220.000
unit fi             kHz
ff                  20.000
unit ff             mHz
Nd                  10
Points              per decade
spacing             Logarithmic
Va (mV)             5.0
pw                  0.10
Na                  3
corr                0
E range min (V)     -1.000
E range max (V)     1.000
I Range             Auto
Bandwidth           8
nc cycles           59
goto Ns'            0
nr cycles           0
inc. cycle          0

freq/Hz	Re(Z)/Ohm	-Im(Z)/Ohm	|Z|/Ohm	Phase(Z)/deg	time/s	<Ewe>/V	<I>/mA	Cs/µF	Cp/µF	cycle number	I Range	|Ewe|/V	|I|/A	Ns	(Q-Qo)/mA.h	Analog OUT/V	THD Ewe/%	NSD Ewe/%	NSR Ewe/%	|Ewe h2|/V	|Ewe h3|/V	|Ewe h4|/V	|Ewe h5|/V	|Ewe h6|/V	|Ewe h7|/V	THD I/%	NSD I/%	NSR I/%	|I h2|/A	|I h3|/A	|I h4|/A	|I h5|/A	|I h6|/A	|I h7|/A	Re(Y)/Ohm-1	Im(Y)/Ohm-1	|Y|/Ohm-1	Phase(Y)/deg	Re(C)/nF	Im(C)/nF	|C|/nF	Phase(C)/deg	Re(M)	Im(M)	|M|	Phase(M)/deg	Re(Permittivity)	Im(Permittivity)	|Permittivity|	Phase(Permittivity)/deg	Re(Resistivity)/Ohm.cm	Im(Resistivity)/Ohm.cm	|Resistivity|/Ohm.cm	Phase(Resistivity)/deg	Re(Conductivity)/mS/cm	Im(Conductivity)/mS/cm	|Conductivity|/mS/cm	Phase(Conductivity)/deg	Tan(Delta)	Loss Angle(Delta)/deg	dq/mA.h
220003	0.0786665	-0.0226026	0.0818492	16.0305	601.823	0.000187474	-0.319465	-32.0061	-2.44074	1	37	0.00291093	0.0355646	0	-0.000137311	4.3	-1	-1	-1	0	0	0	0	0	0	-1	-1	-1	0	0	0	0	0	0	11.7425	-3.37388	12.2176	-16.0305	-2440.74	8494.79	8838.48	-106.031	0.0000000E+000	0.0000000E+000	0.0000000E+000	106.031	0.0000000E+000	0.0000000E+000	0.0000000E+000	-106.031	0.0000000E+000	0.0000000E+000	0.0000000E+000	16.0305	0.0000000E+000	0.0000000E+000	0.0000000E+000	-16.0305	3.48041	73.9695	-0.000137311
0.255612	0.161542	0.0247056	0.163421	-8.69522	5503.5	0.000105528	-0.842111	2.52025e+07	576000	4	37	0.00525806	0.0321751	0	-1.19591	4.3	0.099918	0.0680519	0.671133	4.97111e-07	3.66441e-06	1.35924e-06	2.49776e-06	1.68453e-06	1.20193e-06	0.137694	0.272014	0.375559	1.62392e-05	2.22523e-05	8.74283e-06	2.24643e-05	1.20522e-05	1.0438e-05	6.04885	0.925088	6.11918	8.69522	5.76e+08	3.76628e+09	3.81007e+09	-81.3048	0.0000000E+000	0.0000000E+000	0.0000000E+000	81.3048	0.0000000E+000	0.0000000E+000	0.0000000E+000	-81.3048	0.0000000E+000	0.0000000E+000	0.0000000E+000	-8.69522	0.0000000E+000	0.0000000E+000	0.0000000E+000	8.69522	6.53868	81.3048	-0.00280725
4.11618	0.147716	0.00455642	0.147786	-1.76678	11721.7	0.000129427	-0.810221	8.48598e+06	8066.46	8	37	0.00510909	0.0345708	0	-2.63171	4.3	0.13975	0.12595	3.00282	1.77727e-06	3.36342e-06	2.5869e-06	2.00146e-06	2.93897e-06	3.24835e-06	0.155884	0.0975088	0.409809	7.54545e-06	3.18124e-05	2.82141e-05	2.8709e-05	7.34153e-06	3.92085e-06	6.76332	0.208621	6.76654	1.76678	8.06646e+06	2.61509e+08	2.61633e+08	-88.2332	0.0000000E+000	0.0000000E+000	0.0000000E+000	88.2332	0.0000000E+000	0.0000000E+000	0.0000000E+000	-88.2332	0.0000000E+000	0.0000000E+000	0.0000000E+000	-1.76678	0.0000000E+000	0.0000000E+000	0.0000000E+000	1.76678	32.4192	88.2332	-0.00105533
66.3374	0.145892	0.00243794	0.145912	-0.957357	18087.8	0.000124189	-0.78979	984099	274.727	12	37	0.00509745	0.034935	0	-4.15801	4.3	0.315561	0.183031	6.16867	5.87754e-06	1.01685e-05	3.29491e-06	5.12486e-06	5.33539e-06	5.4468e-06	0.109754	0.0228945	0.617349	6.36437e-06	2.70444e-05	8.13502e-06	2.36292e-05	5.67165e-06	2.45043e-06	6.85247	0.114509	6.85343	0.957357	274727	1.64403e+07	1.64426e+07	-89.0426	0.0000000E+000	0.0000000E+000	0.0000000E+000	89.0426	0.0000000E+000	0.0000000E+000	0.0000000E+000	-89.0426	0.0000000E+000	0.0000000E+000	0.0000000E+000	-0.957357	0.0000000E+000	0.0000000E+000	0.0000000E+000	0.957357	59.8423	89.0426	-0.000283452
1068.29	0.139391	0.0127697	0.139975	-5.23428	24428.5	9.07474e-05	-0.828204	11666.7	97.0978	16	37	0.00509484	0.0363982	0	-5.6295	4.3	0.292777	0.196959	6.10348	5.60251e-06	3.38373e-06	6.17047e-06	4.17917e-06	6.22098e-06	6.93434e-06	0.0385467	0.0960053	0.596835	6.49917e-06	6.31095e-06	6.15603e-06	5.59721e-06	3.8209e-06	3.69988e-06	7.11435	0.651749	7.14414	5.23428	97097.8	1.0599e+06	1.06434e+06	-84.7657	0.0000000E+000	0.0000000E+000	0.0000000E+000	84.7657	0.0000000E+000	0.0000000E+000	0.0000000E+000	-84.7657	0.0000000E+000	0.0000000E+000	0.0000000E+000	-5.23428	0.0000000E+000	0.0000000E+000	0.0000000E+000	5.23428	10.9158	84.7657	-0.000327579
17211.6	0.101269	0.0156858	0.102477	-8.80466	30724.1	0.000231131	-0.259015	589.512	13.8118	20	37	0.00517799	0.0505283	0	-7.15216	4.3	0.307685	0.101169	6.02345	7.49923e-06	8.30017e-06	3.29899e-06	4.91814e-06	4.23669e-06	7.07815e-06	0.0930976	0.0175771	0.420463	2.97183e-06	4.53647e-05	3.4281e-06	6.41773e-06	6.42866e-06	3.95303e-06	9.64329	1.49366	9.75828	8.80466	13811.8	89171	90234.3	-81.1953	0.0000000E+000	0.0000000E+000	0.0000000E+000	81.1953	0.0000000E+000	0.0000000E+000	0.0000000E+000	-81.1953	0.0000000E+000	0.0000000E+000	0.0000000E+000	-8.80466	0.0000000E+000	0.0000000E+000	0.0000000E+000	8.80466	6.45613	81.1953	-2.3147e-05
0.0199946	0.223203	0.0139787	0.223641	-3.58363	37010.7	0.000132959	-0.755311	5.69429e+08	2.22471e+06	23	38	0.00508757	0.0227489	0	-8.61627	4.3	0.131534	0.149348	0.25407	2.56634e-06	5.21073e-06	1.5328e-06	1.96304e-06	1.27975e-06	5.91085e-07	0.171792	0.146873	0.748099	8.95954e-06	2.3549e-05	1.32881e-05	1.55497e-05	1.33848e-05	1.47257e-05	4.46272	0.27949	4.47146	3.58363	2.22471e+09	3.55228e+10	3.55924e+10	-86.4164	0.0000000E+000	0.0000000E+000	0.0000000E+000	86.4164	0.0000000E+000	0.0000000E+000	0.0000000E+000	-86.4164	0.0000000E+000	0.0000000E+000	0.0000000E+000	-3.58363	0.0000000E+000	0.0000000E+000	0.0000000E+000	3.58363	15.9674	86.4164	-0.0467159
0.322118	0.167101	0.0207911	0.168389	-7.09245	41895.2	0.000146053	-0.748931	2.37644e+07	362289	27	37	0.00510045	0.0302897	0	-9.69394	4.3	0.112304	0.0879347	0.773154	2.51767e-06	3.62221e-06	9.4214e-07	3.01861e-06	9.99223e-07	1.25996e-06	0.147962	0.165202	0.360555	8.87311e-06	2.7298e-05	9.08625e-06	2.87102e-05	7.31911e-06	7.13414e-06	5.89318	0.733247	5.93862	7.09245	3.62289e+08	2.91175e+09	2.93421e+09	-82.9075	0.0000000E+000	0.0000000E+000	0.0000000E+000	82.9075	0.0000000E+000	0.0000000E+000	0.0000000E+000	-82.9075	0.0000000E+000	0.0000000E+000	0.0000000E+000	-7.09245	0.0000000E+000	0.0000000E+000	0.0000000E+000	7.09245	8.03711	82.9075	0.000185238
5.19276	0.156689	0.00396858	0.156739	-1.45087	48139.1	0.000166137	-0.828991	7.72302e+06	4951.12	31	37	0.00510582	0.0325753	0	-11.1161	4.3	0.247445	0.16181	3.65643	3.78874e-06	6.5264e-06	4.206e-06	2.64905e-06	5.32247e-06	4.64822e-06	0.220672	0.104134	0.427095	8.6301e-06	6.50241e-05	7.41273e-06	2.54268e-05	5.77341e-06	5.79569e-06	6.37799	0.161541	6.38004	1.45087	4.95113e+06	1.95482e+08	1.95544e+08	-88.5491	0.0000000E+000	0.0000000E+000	0.0000000E+000	88.5491	0.0000000E+000	0.0000000E+000	0.0000000E+000	-88.5491	0.0000000E+000	0.0000000E+000	0.0000000E+000	-1.45087	0.0000000E+000	0.0000000E+000	0.0000000E+000	1.45087	39.4823	88.5491	-0.000490744
83.635	0.154281	0.00333923	0.154317	-1.23991	54440.5	0.000130508	-0.781825	569883	266.839	35	37	0.00508956	0.0329812	0	-12.5791	4.3	0.372977	0.145486	6.27184	3.73838e-06	4.78821e-06	6.85573e-06	6.97919e-06	8.46454e-06	8.51523e-06	0.126162	0.0278418	0.648641	7.10717e-06	3.1176e-05	9.28381e-06	2.28639e-05	5.24711e-06	4.07841e-06	6.47864	0.140222	6.48016	1.23991	266839	1.23287e+07	1.23316e+07	-88.7601	0.0000000E+000	0.0000000E+000	0.0000000E+000	88.7601	0.0000000E+000	0.0000000E+000	0.0000000E+000	-88.7601	0.0000000E+000	0.0000000E+000	0.0000000E+000	-1.23991	0.0000000E+000	0.0000000E+000	0.0000000E+000	1.23991	46.2026	88.7601	-0.00027135
1347.15	0.142845	0.0168823	0.143839	-6.74033	60725.2	9.29283e-05	-0.876388	6997.94	96.4013	39	37	0.00516493	0.0359078	0	-14.0415	4.3	0.259317	0.109606	6.20187	4.40833e-06	5.45552e-06	2.71903e-06	6.94331e-06	2.47608e-06	6.73607e-06	0.0373037	0.0247437	0.590948	5.15607e-06	3.72287e-06	5.29224e-06	6.1348e-06	5.6511e-06	4.74448e-06	6.90417	0.815981	6.95222	6.74033	96401.2	815670	821347	-83.2597	0.0000000E+000	0.0000000E+000	0.0000000E+000	83.2597	0.0000000E+000	0.0000000E+000	0.0000000E+000	-83.2597	0.0000000E+000	0.0000000E+000	0.0000000E+000	-6.74033	0.0000000E+000	0.0000000E+000	0.0000000E+000	6.74033	8.46119	83.2597	-0.000241864
21702.4	0.0995226	0.014184	0.100528	-8.11117	67009.2	0.000209619	-0.398637	517.029	10.2928	43	37	0.00519186	0.0516458	0	-15.4829	4.3	0.329896	0.140033	6.06022	7.89893e-06	8.92657e-06	4.1729e-06	7.0948e-06	5.33724e-06	6.91385e-06	0.102015	0.0546693	0.408926	2.26271e-06	5.10972e-05	3.6632e-06	8.51583e-06	4.25531e-06	6.11007e-06	9.84794	1.40353	9.94745	8.11117	10292.8	72220	72949.7	-81.8888	0.0000000E+000	0.0000000E+000	0.0000000E+000	81.8888	0.0000000E+000	0.0000000E+000	0.0000000E+000	-81.8888	0.0000000E+000	0.0000000E+000	0.0000000E+000	-8.11117	0.0000000E+000	0.0000000E+000	0.0000000E+000	8.11117	7.01656	81.8888	-3.54684e-05
0.0252177	0.22721	0.0169005	0.227838	-4.25397	73052.3	0.000120573	-0.840846	3.73436e+08	2.05476e+06	46	38	0.00539262	0.0236687	0	-16.9022	4.3	0.125708	0.121653	0.247532	2.36405e-06	4.93867e-06	1.71446e-06	3.07753e-06	7.6631e-07	7.71048e-07	0.269783	0.135852	0.601177	1.35476e-05	2.49673e-05	1.13611e-05	2.08338e-05	4.68506e-05	2.07202e-05	4.37699	0.325572	4.38908	4.25397	2.05476e+09	2.76243e+10	2.77006e+10	-85.746	0.0000000E+000	0.0000000E+000	0.0000000E+000	85.746	0.0000000E+000	0.0000000E+000	0.0000000E+000	-85.746	0.0000000E+000	0.0000000E+000	0.0000000E+000	-4.25397	0.0000000E+000	0.0000000E+000	0.0000000E+000	4.25397	13.444	85.746	-0.0732228
0.406108	0.16966	0.0173132	0.170541	-5.82666	78229.1	0.000112262	-0.805716	2.26361e+07	233291	50	37	0.00525451	0.0308108	0	-17.9956	4.3	0.120228	0.0749648	0.867593	1.07956e-06	4.86877e-06	1.12764e-06	2.54701e-06	1.32748e-06	1.67171e-06	0.120641	0.142845	0.354348	1.10493e-05	1.88263e-05	9.2875e-06	2.42779e-05	5.10634e-06	8.27199e-06	5.8334	0.595277	5.86369	5.82666	2.33291e+08	2.28612e+09	2.298e+09	-84.1733	0.0000000E+000	0.0000000E+000	0.0000000E+000	84.1733	0.0000000E+000	0.0000000E+000	0.0000000E+000	-84.1733	0.0000000E+000	0.0000000E+000	0.0000000E+000	-5.82666	0.0000000E+000	0.0000000E+000	0.0000000E+000	5.82666	9.79945	84.1733	0.000589664
6.54313	0.159991	0.00361156	0.160032	-1.29315	84526.4	0.000128802	-0.807378	6.73503e+06	3430.19	54	37	0.00541399	0.0338308	0	-19.4174	4.3	0.170511	0.113383	4.37359	2.74254e-06	2.96912e-06	5.10267e-06	4.58835e-06	3.43978e-06	2.53615e-06	0.16918	0.0512908	0.483199	3.12839e-05	3.83884e-05	4.2923e-06	2.44481e-05	4.42524e-06	1.10449e-05	6.24718	0.141021	6.24877	1.29315	3.4302e+06	1.51956e+08	1.51995e+08	-88.7068	0.0000000E+000	0.0000000E+000	0.0000000E+000	88.7068	0.0000000E+000	0.0000000E+000	0.0000000E+000	-88.7068	0.0000000E+000	0.0000000E+000	0.0000000E+000	-1.29315	0.0000000E+000	0.0000000E+000	0.0000000E+000	1.29315	44.2996	88.7068	-6.71863e-06
105.438	0.157305	0.00405151	0.157357	-1.47537	90825.1	0.000113862	-0.888691	372567	246.982	58	37	0.0052366	0.0332785	0	-20.8555	4.3	0.280106	0.176611	6.06943	4.52822e-06	5.4304e-06	6.89111e-06	5.45488e-06	5.43108e-06	5.7922e-06	0.113631	0.0213283	0.637844	5.20703e-06	2.63618e-05	8.15743e-06	2.4648e-05	2.82334e-06	3.86167e-06	6.35287	0.163623	6.35497	1.47537	246982	9.58939e+06	9.59257e+06	-88.5246	0.0000000E+000	0.0000000E+000	0.0000000E+000	88.5246	0.0000000E+000	0.0000000E+000	0.0000000E+000	-88.5246	0.0000000E+000	0.0000000E+000	0.0000000E+000	-1.47537	0.0000000E+000	0.0000000E+000	0.0000000E+000	1.47537	38.8262	88.5246	-0.000282299
0.0199946	0.23083	0.014403	0.231279	-3.57042	95529.4	0.000126022	-0.776891	5.52657e+08	2.14332e+06	60	38	0.00539507	0.0233271	0	-21.8801	4.3	0.121776	0.134126	0.230154	1.8131e-06	5.52693e-06	7.60544e-07	2.54647e-06	6.83836e-07	1.0474e-06	0.170573	0.197342	0.643787	8.14807e-06	1.97962e-05	4.76987e-06	2.41725e-05	1.18352e-05	1.69582e-05	4.31539	0.269265	4.32378	3.57042	2.14332e+09	3.43501e+10	3.44169e+10	-86.4296	0.0000000E+000	0.0000000E+000	0.0000000E+000	86.4296	0.0000000E+000	0.0000000E+000	0.0000000E+000	-86.4296	0.0000000E+000	0.0000000E+000	0.0000000E+000	-3.57042	0.0000000E+000	0.0000000E+000	0.0000000E+000	3.57042	16.0266	86.4296	-0.0328637