File: Python/Experiments/IRFB/240507-Cloth-1p5M_FeCl2FeCl3-1M_HCl/Data/240507-EIS-Cloth-1p5M_FeCl2FeCl3-1M_HCl-Wamup_10mLmin-4xFlowRate-20mHz_10ppd_05_PEIS_C15.mpt
EC-Lab ASCII FILE
Nb header lines : 75

Potentio Electrochemical Impedance Spectroscopy

Run on channel : 15 (SN 19485)
User :
Electrode connection : standard
Potential control : Ewe
Ewe ctrl range : min = -1.00 V, max = 1.00 V
Ewe,I filtering : 50 kHz
Safety Limits :
	Do not start on E overload
Channel : Grounded
Acquisition started on : 05/08/2024 12:03:59.706
Loaded Setting File :  C:\Data\mathias\IRFB\240503-EIS-Felt-1p5M_FeCl2FeCl3-1M_HCl-Wamup_10mLmin-4xFlowRate-20mHz_10ppd.mps
Saved on :
	File : 240507-EIS-Cloth-1p5M_FeCl2FeCl3-1M_HCl-Wamup_10mLmin-4xFlowRate-20mHz_10ppd_05_PEIS_C15.mpr
	Directory : C:\Data\mathias\IRFB\
	Host : 192.168.0.1
Device : VMP-300 (SN 0826)
Address : USB
EC-Lab for windows v11.52 (software)
Internet server v11.52 (firmware)
Command interpretor v11.52 (firmware)
Electrode material :
Initial state :
Electrolyte :
Comments :
Cable : special
Electrode surface area : 0.001 cm²
Characteristic mass : 0.001 g
Equivalent Weight : 0.000 g/eq.
Density : 0.000 g/cm3
Volume (V) : 0.001 cm³
Record EIS quality indicators
Cycle Definition : Charge/Discharge alternance
External device configuration :
   device type : Other
   device name : Other
   Analog OUT :
      mode : E/V
      unit : KNF Pump/ml/min
      max : 120.000 at 5.000 V
      min : 0.000 at 0.000 V
      current : 4.300
Mode                Single sine
E (V)               0.0000
vs.                 Eoc
tE (h:m:s)          0:00:0.0000
record              0
dI                  0.000
unit dI             mA
dt (s)              0.000
fi                  220.000
unit fi             kHz
ff                  20.000
unit ff             mHz
Nd                  10
Points              per decade
spacing             Logarithmic
Va (mV)             5.0
pw                  0.10
Na                  3
corr                0
E range min (V)     -1.000
E range max (V)     1.000
I Range             Auto
Bandwidth           8
nc cycles           2
goto Ns'            0
nr cycles           0
inc. cycle          0

freq/Hz	Re(Z)/Ohm	-Im(Z)/Ohm	|Z|/Ohm	Phase(Z)/deg	time/s	<Ewe>/V	<I>/mA	Cs/µF	Cp/µF	cycle number	I Range	|Ewe|/V	|I|/A	Ns	(Q-Qo)/mA.h	Analog OUT/V	THD Ewe/%	NSD Ewe/%	NSR Ewe/%	|Ewe h2|/V	|Ewe h3|/V	|Ewe h4|/V	|Ewe h5|/V	|Ewe h6|/V	|Ewe h7|/V	THD I/%	NSD I/%	NSR I/%	|I h2|/A	|I h3|/A	|I h4|/A	|I h5|/A	|I h6|/A	|I h7|/A	Re(Y)/Ohm-1	Im(Y)/Ohm-1	|Y|/Ohm-1	Phase(Y)/deg	Re(C)/nF	Im(C)/nF	|C|/nF	Phase(C)/deg	Re(M)	Im(M)	|M|	Phase(M)/deg	Re(Permittivity)	Im(Permittivity)	|Permittivity|	Phase(Permittivity)/deg	Re(Resistivity)/Ohm.cm	Im(Resistivity)/Ohm.cm	|Resistivity|/Ohm.cm	Phase(Resistivity)/deg	Re(Conductivity)/mS/cm	Im(Conductivity)/mS/cm	|Conductivity|/mS/cm	Phase(Conductivity)/deg	Tan(Delta)	Loss Angle(Delta)/deg	dq/mA.h
220003	0.0809127	-0.0225578	0.0839983	15.578	101444	0.000210197	-0.377885	-32.0697	-2.31285	1	37	0.00298633	0.0355523	0	-0.000216531	6.2	-1	-1	-1	0	0	0	0	0	0	-1	-1	-1	0	0	0	0	0	0	11.4677	-3.19709	11.905	-15.578	-2312.85	8295.98	8612.35	-105.578	0.0000000E+000	0.0000000E+000	0.0000000E+000	105.578	0.0000000E+000	0.0000000E+000	0.0000000E+000	-105.578	0.0000000E+000	0.0000000E+000	0.0000000E+000	15.578	0.0000000E+000	0.0000000E+000	0.0000000E+000	-15.578	3.5869	74.422	-0.000216531
8590.41	0.112398	0.021118	0.114364	-10.641	101460	8.42045e-05	-1.01076	877.312	29.9141	1	37	0.00528373	0.0462008	0	-0.00241037	6.2	0.325777	0.189341	5.92267	6.13993e-06	4.57299e-06	3.86896e-06	8.63026e-06	1.0106e-05	3.12686e-06	0.103131	0.0662773	0.458252	2.97174e-06	4.58173e-05	5.53119e-06	8.74042e-06	4.5218e-06	4.48987e-06	8.59361	1.61462	8.74397	10.641	29914.1	159214	162000	-79.359	0.0000000E+000	0.0000000E+000	0.0000000E+000	79.359	0.0000000E+000	0.0000000E+000	0.0000000E+000	-79.359	0.0000000E+000	0.0000000E+000	0.0000000E+000	-10.641	0.0000000E+000	0.0000000E+000	0.0000000E+000	10.641	5.32237	79.359	-0.000345002
335.537	0.154317	0.00811305	0.15453	-3.0095	101478	0.000144787	-0.865352	58465	161.153	1	37	0.00500533	0.0323907	0	-0.00669127	6.2	0.314558	0.110306	6.35367	5.33498e-06	4.88534e-06	6.40924e-06	6.30054e-06	8.9664e-06	4.72194e-06	0.0820141	0.015785	0.643937	6.54614e-06	2.03235e-05	6.03972e-06	1.31754e-05	3.57326e-06	1.6405e-06	6.46231	0.33975	6.47124	3.0095	161153	3.06526e+06	3.0695e+06	-86.9905	0.0000000E+000	0.0000000E+000	0.0000000E+000	86.9905	0.0000000E+000	0.0000000E+000	0.0000000E+000	-86.9905	0.0000000E+000	0.0000000E+000	0.0000000E+000	-3.0095	0.0000000E+000	0.0000000E+000	0.0000000E+000	3.0095	19.0208	86.9905	-0.000323853
13.1083	0.159337	0.00277784	0.159361	-0.998783	101494	0.000118858	-0.895623	4.37087e+06	1328.07	1	37	0.00525961	0.0330044	0	-0.010427	6.2	0.34671	0.0930819	4.14353	2.43425e-06	4.807e-06	1.48595e-05	5.02773e-06	3.21824e-06	4.24649e-06	0.118376	0.106324	0.470804	1.2086e-05	1.81296e-05	1.56217e-05	2.63699e-05	2.77505e-06	3.94965e-06	6.27412	0.109382	6.27507	0.998783	1.32806e+06	7.61777e+07	7.61893e+07	-89.0012	0.0000000E+000	0.0000000E+000	0.0000000E+000	89.0012	0.0000000E+000	0.0000000E+000	0.0000000E+000	-89.0012	0.0000000E+000	0.0000000E+000	0.0000000E+000	-0.998783	0.0000000E+000	0.0000000E+000	0.0000000E+000	0.998783	57.3598	89.0012	-0.000294666
0.511825	0.168194	0.0139399	0.168771	-4.73784	101555	0.000118219	-0.951113	2.23069e+07	152182	1	37	0.00525485	0.0311361	0	-0.0286819	6.2	0.125972	0.0653421	0.947744	1.76509e-06	5.30342e-06	1.05625e-06	2.69071e-06	7.48491e-07	1.15069e-06	0.121693	0.145644	0.34854	1.09804e-05	2.23613e-05	8.34252e-06	2.43455e-05	4.14985e-06	4.40967e-06	5.90496	0.489402	5.9252	4.73784	1.52182e+08	1.83618e+09	1.84248e+09	-85.2622	0.0000000E+000	0.0000000E+000	0.0000000E+000	85.2622	0.0000000E+000	0.0000000E+000	0.0000000E+000	-85.2622	0.0000000E+000	0.0000000E+000	0.0000000E+000	-4.73784	0.0000000E+000	0.0000000E+000	0.0000000E+000	4.73784	12.0657	85.2622	-0.00548961
0.0199946	0.208402	0.00679998	0.208513	-1.86885	102978	0.00013826	-0.837476	1.17058e+09	1.24494e+06	1	37	0.00524703	0.025164	0	-0.369532	6.2	0.108714	0.168312	0.233988	2.24759e-06	4.03957e-06	9.26417e-07	2.48166e-06	9.24036e-07	7.31082e-07	0.149413	0.119727	0.288399	2.05781e-05	2.09343e-05	6.11409e-06	1.8651e-05	5.55614e-06	3.42418e-06	4.79331	0.156401	4.79586	1.86885	1.24494e+09	3.81542e+10	3.81745e+10	-88.1311	0.0000000E+000	0.0000000E+000	0.0000000E+000	88.1311	0.0000000E+000	0.0000000E+000	0.0000000E+000	-88.1311	0.0000000E+000	0.0000000E+000	0.0000000E+000	-1.86885	0.0000000E+000	0.0000000E+000	0.0000000E+000	1.86885	30.6475	88.1311	-0.0404469
10837.3	0.108404	0.0198178	0.1102	-10.3601	102994	0.000207774	-0.440717	741.045	23.9656	2	37	0.00517221	0.0469346	0	-0.372327	6.2	0.36919	0.157454	6.12212	6.89763e-06	9.19244e-06	5.58751e-06	6.68245e-06	7.71181e-06	4.63934e-06	0.119478	0.0366098	0.440655	5.29766e-06	3.26739e-05	6.062e-06	6.61324e-06	5.8063e-06	4.3694e-05	8.92645	1.63188	9.07439	10.3601	23965.6	131093	133265	-79.6399	0.0000000E+000	0.0000000E+000	0.0000000E+000	79.6399	0.0000000E+000	0.0000000E+000	0.0000000E+000	-79.6399	0.0000000E+000	0.0000000E+000	0.0000000E+000	-10.3601	0.0000000E+000	0.0000000E+000	0.0000000E+000	10.3601	5.47002	79.6399	-0.000140858
423.239	0.153177	0.00927039	0.153457	-3.46337	103012	0.000126631	-0.888504	40563.6	148.033	2	37	0.00514345	0.0335172	0	-0.377247	6.2	0.267811	0.161079	5.98529	5.38989e-06	6.46154e-06	5.68334e-06	4.13781e-06	5.10488e-06	4.94064e-06	0.0631454	0.015848	0.631735	6.14514e-06	1.64222e-05	5.64644e-06	9.23574e-06	2.81727e-06	2.3385e-06	6.50459	0.393664	6.51649	3.46337	148033	2.44599e+06	2.45046e+06	-86.5366	0.0000000E+000	0.0000000E+000	0.0000000E+000	86.5366	0.0000000E+000	0.0000000E+000	0.0000000E+000	-86.5366	0.0000000E+000	0.0000000E+000	0.0000000E+000	-3.46337	0.0000000E+000	0.0000000E+000	0.0000000E+000	3.46337	16.5232	86.5366	-0.000388683
16.5286	0.159224	0.00273472	0.159248	-0.983973	103028	0.000131291	-0.927141	3.52104e+06	1038.36	2	37	0.00510917	0.0320831	0	-0.381282	6.2	0.324726	0.215941	6.09449	7.79817e-06	1.04926e-05	5.1732e-06	3.82865e-06	4.29732e-06	3.19418e-06	0.185822	0.10254	0.605397	3.06046e-06	5.40645e-05	7.17083e-06	2.17145e-05	4.81566e-06	4.21305e-06	6.27859	0.107836	6.27952	0.983973	1.03836e+06	6.0457e+07	6.04659e+07	-89.016	0.0000000E+000	0.0000000E+000	0.0000000E+000	89.016	0.0000000E+000	0.0000000E+000	0.0000000E+000	-89.016	0.0000000E+000	0.0000000E+000	0.0000000E+000	-0.983973	0.0000000E+000	0.0000000E+000	0.0000000E+000	0.983973	58.2233	89.016	-0.000255473
0.645874	0.166925	0.0117916	0.167341	-4.04066	103078	0.000122597	-0.915741	2.08977e+07	103762	2	37	0.00510208	0.030489	0	-0.395552	6.2	0.12983	0.0633336	1.07976	2.87638e-06	4.82728e-06	8.84091e-07	2.19802e-06	1.50331e-06	1.05303e-06	0.161084	0.169984	0.367283	1.65532e-05	3.47413e-05	1.51328e-05	2.21394e-05	7.39152e-06	8.71728e-06	5.96096	0.421081	5.97581	4.04066	1.03762e+08	1.46889e+09	1.47255e+09	-85.9593	0.0000000E+000	0.0000000E+000	0.0000000E+000	85.9593	0.0000000E+000	0.0000000E+000	0.0000000E+000	-85.9593	0.0000000E+000	0.0000000E+000	0.0000000E+000	-4.04066	0.0000000E+000	0.0000000E+000	0.0000000E+000	4.04066	14.1563	85.9593	-0.00495171
0.0252177	0.207966	0.00817961	0.208127	-2.25236	104208	0.000131676	-0.882185	7.71583e+08	1.19176e+06	2	37	0.00509119	0.0244619	0	-0.696331	6.2	0.12569	0.161449	0.266975	3.41548e-06	5.03789e-06	9.80787e-07	1.1764e-06	3.02711e-07	6.13314e-07	0.149668	0.205348	0.314763	7.22385e-06	2.72989e-05	7.29161e-06	1.7884e-05	3.98193e-06	6.45998e-06	4.80104	0.188832	4.80475	2.25236	1.19176e+09	3.03005e+10	3.0324e+10	-87.7476	0.0000000E+000	0.0000000E+000	0.0000000E+000	87.7476	0.0000000E+000	0.0000000E+000	0.0000000E+000	-87.7476	0.0000000E+000	0.0000000E+000	0.0000000E+000	-2.25236	0.0000000E+000	0.0000000E+000	0.0000000E+000	2.25236	25.425	87.7476	-0.0521483
13658	0.105039	0.0182226	0.106608	-9.84196	104528	0.000211595	-0.416615	639.477	18.6839	3	37	0.00517598	0.0485516	0	-0.742356	6.2	0.277456	0.187126	6.06493	5.79087e-06	3.6485e-06	6.79681e-06	6.48706e-06	4.44572e-06	4.72794e-06	0.0923304	0.0122548	0.440228	3.24476e-06	4.27589e-05	6.35946e-06	5.13636e-06	8.7013e-06	3.55338e-06	9.24214	1.60337	9.38019	9.84196	18683.9	107698	109306	-80.158	0.0000000E+000	0.0000000E+000	0.0000000E+000	80.158	0.0000000E+000	0.0000000E+000	0.0000000E+000	-80.158	0.0000000E+000	0.0000000E+000	0.0000000E+000	-9.84196	0.0000000E+000	0.0000000E+000	0.0000000E+000	9.84196	5.76421	80.158	-8.33393e-05
533.464	0.152491	0.0110336	0.15289	-4.13847	104546	0.000109574	-0.944171	27039.4	140.824	3	37	0.00506349	0.0331186	0	-0.747047	6.2	0.248815	0.165815	6.27696	5.00643e-06	6.55124e-06	4.41713e-06	4.45006e-06	3.29791e-06	4.66246e-06	0.0629184	0.0208069	0.643334	4.61569e-06	1.74095e-05	6.57143e-06	4.60834e-06	2.54924e-06	5.4628e-06	6.52361	0.472022	6.54067	4.13847	140824	1.94627e+06	1.95136e+06	-85.8615	0.0000000E+000	0.0000000E+000	0.0000000E+000	85.8615	0.0000000E+000	0.0000000E+000	0.0000000E+000	-85.8615	0.0000000E+000	0.0000000E+000	0.0000000E+000	-4.13847	0.0000000E+000	0.0000000E+000	0.0000000E+000	4.13847	13.8206	85.8615	-0.000299435
20.8333	0.159121	0.00275723	0.159145	-0.992714	104562	0.000117143	-0.890663	2.77069e+06	831.664	3	37	0.00525944	0.0330481	0	-0.75102	6.2	0.345357	0.154453	5.92656	7.59321e-06	8.06904e-06	5.70552e-06	7.5219e-06	4.84047e-06	6.74546e-06	0.140151	0.222075	0.608211	1.10607e-05	2.87434e-05	3.43241e-06	2.69454e-05	5.02952e-06	1.97315e-05	6.28263	0.108865	6.28357	0.992714	831664	4.79958e+07	4.8003e+07	-89.0073	0.0000000E+000	0.0000000E+000	0.0000000E+000	89.0073	0.0000000E+000	0.0000000E+000	0.0000000E+000	-89.0073	0.0000000E+000	0.0000000E+000	0.0000000E+000	-0.992714	0.0000000E+000	0.0000000E+000	0.0000000E+000	0.992714	57.7105	89.0073	-0.000393509
0.813551	0.166233	0.0101789	0.166544	-3.50401	104603	0.000136599	-0.87645	1.92191e+07	71792.1	3	37	0.00525403	0.0315473	0	-0.760296	6.2	0.127593	0.0650647	1.19313	8.61924e-07	5.42814e-06	7.1823e-07	2.89239e-06	1.9703e-06	8.66546e-07	0.117957	0.133626	0.3496	8.14897e-06	2.26853e-05	9.74442e-06	2.39313e-05	4.85143e-06	3.85324e-06	5.99318	0.366979	6.0044	3.50401	7.17922e+07	1.17244e+09	1.17464e+09	-86.496	0.0000000E+000	0.0000000E+000	0.0000000E+000	86.496	0.0000000E+000	0.0000000E+000	0.0000000E+000	-86.496	0.0000000E+000	0.0000000E+000	0.0000000E+000	-3.50401	0.0000000E+000	0.0000000E+000	0.0000000E+000	3.50401	16.3311	86.496	0.0010256
0.0317924	0.207597	0.00967863	0.207823	-2.66932	105500	0.000127057	-0.884703	5.17228e+08	1.12182e+06	3	37	0.00524613	0.0252433	0	-1.02177	6.2	0.123265	0.105575	0.286052	1.18399e-06	5.68196e-06	8.70443e-07	2.01776e-06	1.39454e-06	7.989e-07	0.149606	0.143097	0.319748	1.26364e-05	2.74261e-05	5.36303e-06	1.96024e-05	3.12594e-06	6.56497e-06	4.80657	0.224093	4.81179	2.66932	1.12182e+09	2.4062e+10	2.40881e+10	-87.3307	0.0000000E+000	0.0000000E+000	0.0000000E+000	87.3307	0.0000000E+000	0.0000000E+000	0.0000000E+000	-87.3307	0.0000000E+000	0.0000000E+000	0.0000000E+000	-2.66932	0.0000000E+000	0.0000000E+000	0.0000000E+000	2.66932	21.449	87.3307	-0.0654987
0.0199946	0.209541	0.00710748	0.209662	-1.94269	106048	0.000138057	-0.861092	1.11993e+09	1.28702e+06	3	37	0.00524638	0.0250231	0	-1.13448	6.2	0.113886	0.121059	0.240555	2.03236e-06	4.10355e-06	1.75772e-06	2.14421e-06	9.57291e-07	6.23835e-07	0.124743	0.148559	0.283837	1.06334e-05	1.90058e-05	7.01897e-06	1.8039e-05	5.68794e-06	3.71577e-06	4.76685	0.161688	4.76959	1.94269	1.28702e+09	3.79436e+10	3.79655e+10	-88.0573	0.0000000E+000	0.0000000E+000	0.0000000E+000	88.0573	0.0000000E+000	0.0000000E+000	0.0000000E+000	-88.0573	0.0000000E+000	0.0000000E+000	0.0000000E+000	-1.94269	0.0000000E+000	0.0000000E+000	0.0000000E+000	1.94269	29.4818	88.0573	-0.0509726