File: Python/Experiments/IRFB/240507-Cloth-1p5M_FeCl2FeCl3-1M_HCl/Data/240507-EIS-Cloth-1p5M_FeCl2FeCl3-1M_HCl-Wamup_10mLmin-4xFlowRate-20mHz_10ppd_03_PEIS_C15.mpt
EC-Lab ASCII FILE
Nb header lines : 75

Potentio Electrochemical Impedance Spectroscopy

Run on channel : 15 (SN 19485)
User :
Electrode connection : standard
Potential control : Ewe
Ewe ctrl range : min = -1.00 V, max = 1.00 V
Ewe,I filtering : 50 kHz
Safety Limits :
	Do not start on E overload
Channel : Grounded
Acquisition started on : 05/08/2024 12:03:59.706
Loaded Setting File :  C:\Data\mathias\IRFB\240503-EIS-Felt-1p5M_FeCl2FeCl3-1M_HCl-Wamup_10mLmin-4xFlowRate-20mHz_10ppd.mps
Saved on :
	File : 240507-EIS-Cloth-1p5M_FeCl2FeCl3-1M_HCl-Wamup_10mLmin-4xFlowRate-20mHz_10ppd_03_PEIS_C15.mpr
	Directory : C:\Data\mathias\IRFB\
	Host : 192.168.0.1
Device : VMP-300 (SN 0826)
Address : USB
EC-Lab for windows v11.52 (software)
Internet server v11.52 (firmware)
Command interpretor v11.52 (firmware)
Electrode material :
Initial state :
Electrolyte :
Comments :
Cable : special
Electrode surface area : 0.001 cm²
Characteristic mass : 0.001 g
Equivalent Weight : 0.000 g/eq.
Density : 0.000 g/cm3
Volume (V) : 0.001 cm³
Record EIS quality indicators
Cycle Definition : Charge/Discharge alternance
External device configuration :
   device type : Other
   device name : Other
   Analog OUT :
      mode : E/V
      unit : KNF Pump/ml/min
      max : 120.000 at 5.000 V
      min : 0.000 at 0.000 V
      current : 4.300
Mode                Single sine
E (V)               0.0000
vs.                 Eoc
tE (h:m:s)          0:10:0.0000
record              0
dI                  0.000
unit dI             mA
dt (s)              0.000
fi                  220.000
unit fi             kHz
ff                  20.000
unit ff             mHz
Nd                  10
Points              per decade
spacing             Logarithmic
Va (mV)             5.0
pw                  0.10
Na                  3
corr                0
E range min (V)     -1.000
E range max (V)     1.000
I Range             Auto
Bandwidth           8
nc cycles           2
goto Ns'            0
nr cycles           0
inc. cycle          0

freq/Hz	Re(Z)/Ohm	-Im(Z)/Ohm	|Z|/Ohm	Phase(Z)/deg	time/s	<Ewe>/V	<I>/mA	Cs/µF	Cp/µF	cycle number	I Range	|Ewe|/V	|I|/A	Ns	(Q-Qo)/mA.h	Analog OUT/V	THD Ewe/%	NSD Ewe/%	NSR Ewe/%	|Ewe h2|/V	|Ewe h3|/V	|Ewe h4|/V	|Ewe h5|/V	|Ewe h6|/V	|Ewe h7|/V	THD I/%	NSD I/%	NSR I/%	|I h2|/A	|I h3|/A	|I h4|/A	|I h5|/A	|I h6|/A	|I h7|/A	Re(Y)/Ohm-1	Im(Y)/Ohm-1	|Y|/Ohm-1	Phase(Y)/deg	Re(C)/nF	Im(C)/nF	|C|/nF	Phase(C)/deg	Re(M)	Im(M)	|M|	Phase(M)/deg	Re(Permittivity)	Im(Permittivity)	|Permittivity|	Phase(Permittivity)/deg	Re(Resistivity)/Ohm.cm	Im(Resistivity)/Ohm.cm	|Resistivity|/Ohm.cm	Phase(Resistivity)/deg	Re(Conductivity)/mS/cm	Im(Conductivity)/mS/cm	|Conductivity|/mS/cm	Phase(Conductivity)/deg	Tan(Delta)	Loss Angle(Delta)/deg	dq/mA.h
220003	0.0813479	-0.0222663	0.0843402	15.3079	96131.2	0.000183559	-0.361563	-32.4895	-2.2645	1	37	0.00299587	0.0355213	0	-0.141737	4.3	-1	-1	-1	0	0	0	0	0	0	-1	-1	-1	0	0	0	0	0	0	11.4361	-3.13025	11.8567	-15.3079	-2264.5	8273.12	8577.44	-105.308	0.0000000E+000	0.0000000E+000	0.0000000E+000	105.308	0.0000000E+000	0.0000000E+000	0.0000000E+000	-105.308	0.0000000E+000	0.0000000E+000	0.0000000E+000	15.3079	0.0000000E+000	0.0000000E+000	0.0000000E+000	-15.3079	3.6534	74.6921	-0.141737
8590.41	0.112737	0.021332	0.114738	-10.7148	96147.3	7.82395e-05	-0.962837	868.511	30.0211	1	37	0.00527456	0.0459707	0	-0.143905	4.3	0.27553	0.103401	6.04938	2.34653e-06	8.67012e-06	3.67815e-06	6.565e-06	4.16043e-06	4.37572e-06	0.105512	0.0598159	0.46029	1.2853e-05	4.50192e-05	5.16544e-06	8.64185e-06	4.43471e-06	3.25851e-06	8.56359	1.62039	8.71554	10.7148	30021.1	158658	161473	-79.2852	0.0000000E+000	0.0000000E+000	0.0000000E+000	79.2852	0.0000000E+000	0.0000000E+000	0.0000000E+000	-79.2852	0.0000000E+000	0.0000000E+000	0.0000000E+000	-10.7148	0.0000000E+000	0.0000000E+000	0.0000000E+000	10.7148	5.28489	79.2852	-0.000455057
335.537	0.155306	0.00815169	0.15552	-3.00458	96165.3	7.03731e-05	-0.910931	58187.8	159.867	1	37	0.00515947	0.0331757	0	-0.148436	4.3	0.351493	0.137654	6.06943	1.0745e-05	5.13166e-06	3.90273e-06	2.14665e-06	6.42301e-06	7.45291e-06	0.0851655	0.017275	0.629259	4.55303e-06	2.24537e-05	7.80497e-06	1.21251e-05	1.90891e-06	5.59314e-06	6.42122	0.337037	6.43006	3.00458	159867	3.04577e+06	3.04996e+06	-86.9954	0.0000000E+000	0.0000000E+000	0.0000000E+000	86.9954	0.0000000E+000	0.0000000E+000	0.0000000E+000	-86.9954	0.0000000E+000	0.0000000E+000	0.0000000E+000	-3.00458	0.0000000E+000	0.0000000E+000	0.0000000E+000	3.00458	19.052	86.9954	-0.000251507
13.1083	0.160407	0.00288041	0.160433	-1.02874	96180.8	8.81004e-05	-0.973065	4.21522e+06	1358.76	1	37	0.00541225	0.0337353	0	-0.152253	4.3	0.442537	0.144098	4.06053	2.86154e-06	6.40777e-06	6.5746e-06	1.92473e-05	4.95515e-06	1.45801e-06	0.137107	0.115429	0.447505	7.53534e-06	2.50079e-05	2.92322e-05	2.25708e-05	6.1749e-06	3.14976e-06	6.23212	0.11191	6.23313	1.02874	1.35875e+06	7.56678e+07	7.568e+07	-88.9713	0.0000000E+000	0.0000000E+000	0.0000000E+000	88.9713	0.0000000E+000	0.0000000E+000	0.0000000E+000	-88.9713	0.0000000E+000	0.0000000E+000	0.0000000E+000	-1.02874	0.0000000E+000	0.0000000E+000	0.0000000E+000	1.02874	55.6889	88.9713	-0.000324185
0.511825	0.169543	0.0145904	0.17017	-4.91859	96241.6	0.000110426	-0.854247	2.13124e+07	156675	1	37	0.0054108	0.0317965	0	-0.16415	4.3	0.117438	0.0585419	0.90866	1.29993e-06	5.20128e-06	1.44362e-06	2.11889e-06	1.19292e-06	1.36109e-06	0.111548	0.148175	0.338533	1.12689e-05	2.30065e-05	7.37339e-06	2.0826e-05	4.93557e-06	2.58325e-06	5.85485	0.503851	5.87649	4.91859	1.56675e+08	1.8206e+09	1.82733e+09	-85.0814	0.0000000E+000	0.0000000E+000	0.0000000E+000	85.0814	0.0000000E+000	0.0000000E+000	0.0000000E+000	-85.0814	0.0000000E+000	0.0000000E+000	0.0000000E+000	-4.91859	0.0000000E+000	0.0000000E+000	0.0000000E+000	4.91859	11.6202	85.0814	-0.0010868
0.0199946	0.230489	0.0142905	0.230932	-3.54784	97715	0.000122196	-0.788751	5.57006e+08	2.13298e+06	1	38	0.00539789	0.0233744	0	-0.5042	4.3	0.133928	0.114002	0.228933	3.11391e-06	5.70975e-06	1.28584e-06	2.47287e-06	9.57337e-07	6.15422e-07	0.151991	0.157387	0.61723	9.663e-06	1.57049e-05	6.03624e-06	2.07526e-05	1.02298e-05	1.65568e-05	4.32198	0.267966	4.33028	3.54784	2.13298e+09	3.44025e+10	3.44686e+10	-86.4522	0.0000000E+000	0.0000000E+000	0.0000000E+000	86.4522	0.0000000E+000	0.0000000E+000	0.0000000E+000	-86.4522	0.0000000E+000	0.0000000E+000	0.0000000E+000	-3.54784	0.0000000E+000	0.0000000E+000	0.0000000E+000	3.54784	16.1288	86.4522	-0.0968931
10837.3	0.10884	0.0198338	0.110633	-10.3276	97731.3	0.000206637	-0.361563	740.445	23.798	2	37	0.00516907	0.0467229	0	-0.502664	4.3	0.255279	0.242059	6.09717	6.34292e-06	5.12141e-06	4.85908e-06	5.3877e-06	5.10839e-06	2.97008e-06	0.112652	0.0347122	0.449533	4.70788e-06	3.19781e-05	3.78601e-06	4.74564e-06	5.20111e-06	4.04419e-05	8.89249	1.62047	9.03893	10.3276	23798	130594	132744	-79.6724	0.0000000E+000	0.0000000E+000	0.0000000E+000	79.6724	0.0000000E+000	0.0000000E+000	0.0000000E+000	-79.6724	0.0000000E+000	0.0000000E+000	0.0000000E+000	-10.3276	0.0000000E+000	0.0000000E+000	0.0000000E+000	10.3276	5.4876	79.6724	-9.43772e-05
423.239	0.153901	0.00944417	0.15419	-3.51157	97749.4	0.000116677	-0.804903	39817.2	149.377	2	37	0.0051458	0.033373	0	-0.506591	4.3	0.339979	0.173049	6.20243	7.90615e-06	7.35271e-06	7.60361e-06	3.18808e-06	6.56101e-06	5.70257e-06	0.0863984	0.0223555	0.636019	3.9545e-06	2.34401e-05	6.50756e-06	1.2708e-05	5.76424e-06	3.68841e-06	6.47331	0.397237	6.48549	3.51157	149377	2.43423e+06	2.43881e+06	-86.4884	0.0000000E+000	0.0000000E+000	0.0000000E+000	86.4884	0.0000000E+000	0.0000000E+000	0.0000000E+000	-86.4884	0.0000000E+000	0.0000000E+000	0.0000000E+000	-3.51157	0.0000000E+000	0.0000000E+000	0.0000000E+000	3.51157	16.2959	86.4884	-0.000258432
16.5286	0.159968	0.00283388	0.159993	-1.01491	97765.1	0.000108326	-0.823384	3.39784e+06	1066.02	2	37	0.00511215	0.0319524	0	-0.50999	4.3	0.262606	0.172327	6.27053	4.20684e-06	6.32267e-06	4.01242e-06	6.578e-06	5.65391e-06	4.49608e-06	0.192586	0.077362	0.621184	8.8349e-06	5.44832e-05	5.2452e-06	2.34088e-05	3.55959e-06	6.02026e-06	6.24931	0.110708	6.25029	1.01491	1.06602e+06	6.0175e+07	6.01845e+07	-88.9851	0.0000000E+000	0.0000000E+000	0.0000000E+000	88.9851	0.0000000E+000	0.0000000E+000	0.0000000E+000	-88.9851	0.0000000E+000	0.0000000E+000	0.0000000E+000	-1.01491	0.0000000E+000	0.0000000E+000	0.0000000E+000	1.01491	56.4483	88.9851	-9.35549e-05
0.645874	0.167938	0.0125914	0.168409	-4.2878	97814.8	0.000106351	-0.850353	1.95704e+07	109399	2	37	0.00510184	0.0302943	0	-0.520657	4.3	0.131831	0.0580046	1.08587	1.7443e-06	4.74352e-06	2.26196e-06	2.51114e-06	1.79969e-06	1.32962e-06	0.128887	0.0958906	0.355327	9.38273e-06	2.5992e-05	3.8393e-06	2.59479e-05	4.67375e-06	3.97608e-06	5.9213	0.443957	5.93792	4.2878	1.09399e+08	1.45911e+09	1.46321e+09	-85.7122	0.0000000E+000	0.0000000E+000	0.0000000E+000	85.7122	0.0000000E+000	0.0000000E+000	0.0000000E+000	-85.7122	0.0000000E+000	0.0000000E+000	0.0000000E+000	-4.2878	0.0000000E+000	0.0000000E+000	0.0000000E+000	4.2878	13.3375	85.7122	-0.00225583
0.0252177	0.228017	0.0167694	0.228633	-4.20622	98969.7	0.000109609	-0.847779	3.76354e+08	2.02468e+06	2	38	0.00508537	0.0222425	0	-0.82332	4.3	0.111837	0.162914	0.261551	1.79948e-06	4.65884e-06	1.37766e-06	1.88703e-06	4.46993e-07	8.36642e-07	0.267671	0.220411	0.620384	8.29349e-06	2.1289e-05	8.89602e-06	1.96439e-05	4.21663e-05	2.64186e-05	4.36205	0.320805	4.37383	4.20622	2.02468e+09	2.75299e+10	2.76043e+10	-85.7938	0.0000000E+000	0.0000000E+000	0.0000000E+000	85.7938	0.0000000E+000	0.0000000E+000	0.0000000E+000	-85.7938	0.0000000E+000	0.0000000E+000	0.0000000E+000	-4.20622	0.0000000E+000	0.0000000E+000	0.0000000E+000	4.20622	13.5972	85.7938	-0.0686537
13658	0.105114	0.0181464	0.106669	-9.79472	99290.6	0.000193309	-0.373474	642.161	18.5844	3	37	0.0051707	0.0484743	0	-0.88786	4.3	0.27206	0.103965	6.11859	5.84895e-06	5.44949e-06	5.47653e-06	4.45402e-06	6.00272e-06	4.66104e-06	0.0907617	0.012799	0.430575	6.54562e-06	4.16513e-05	5.67787e-06	7.3048e-06	6.67264e-06	4.20176e-06	9.23814	1.59483	9.37479	9.79472	18584.4	107651	109244	-80.2053	0.0000000E+000	0.0000000E+000	0.0000000E+000	80.2053	0.0000000E+000	0.0000000E+000	0.0000000E+000	-80.2053	0.0000000E+000	0.0000000E+000	0.0000000E+000	-9.79472	0.0000000E+000	0.0000000E+000	0.0000000E+000	9.79472	5.79257	80.2053	-0.000136474
533.464	0.152275	0.0109178	0.152666	-4.10095	99308.5	0.000102994	-0.841641	27326.3	139.753	3	37	0.00532892	0.0349057	0	-0.891971	4.3	0.335775	0.1266	5.95048	6.8302e-06	6.26379e-06	6.03257e-06	7.70488e-06	8.84259e-06	5.79663e-06	0.0659115	0.0196395	0.608596	5.44889e-06	1.40353e-05	7.29975e-06	1.15535e-05	5.0175e-06	8.01129e-06	6.53346	0.468433	6.55023	4.10095	139753	1.94921e+06	1.95421e+06	-85.8991	0.0000000E+000	0.0000000E+000	0.0000000E+000	85.8991	0.0000000E+000	0.0000000E+000	0.0000000E+000	-85.8991	0.0000000E+000	0.0000000E+000	0.0000000E+000	-4.10095	0.0000000E+000	0.0000000E+000	0.0000000E+000	4.10095	13.9475	85.8991	-0.000278547
20.8333	0.158972	0.0026344	0.158994	-0.94939	99324.5	0.000114216	-0.815976	2.89988e+06	796.131	3	37	0.00510255	0.0320928	0	-0.895701	4.3	0.384219	0.140108	6.16315	8.87774e-06	5.19507e-06	4.50426e-06	1.07406e-05	7.62607e-06	5.40752e-06	0.138385	0.200726	0.626635	1.03518e-05	2.9226e-05	5.96271e-06	2.67183e-05	5.83397e-06	1.28616e-05	6.2887	0.104213	6.28956	0.94939	796128	4.80422e+07	4.80487e+07	-89.0506	0.0000000E+000	0.0000000E+000	0.0000000E+000	89.0506	0.0000000E+000	0.0000000E+000	0.0000000E+000	-89.0506	0.0000000E+000	0.0000000E+000	0.0000000E+000	-0.94939	0.0000000E+000	0.0000000E+000	0.0000000E+000	0.94939	60.3446	89.0506	-0.000119019
0.813551	0.166195	0.0110384	0.166562	-3.79992	99365.5	0.000120166	-0.791226	1.77226e+07	77838.4	3	37	0.00510013	0.0306201	0	-0.906351	4.3	0.106049	0.0746271	1.22413	1.98511e-06	3.83001e-06	1.5052e-06	1.39995e-06	1.64259e-06	1.29504e-06	0.116386	0.0823403	0.354061	4.11117e-06	2.14154e-05	3.73949e-06	2.67638e-05	2.55568e-06	3.06942e-06	5.99059	0.397886	6.00379	3.79992	7.78384e+07	1.17194e+09	1.17452e+09	-86.2001	0.0000000E+000	0.0000000E+000	0.0000000E+000	86.2001	0.0000000E+000	0.0000000E+000	0.0000000E+000	-86.2001	0.0000000E+000	0.0000000E+000	0.0000000E+000	-3.79992	0.0000000E+000	0.0000000E+000	0.0000000E+000	3.79992	15.056	86.2001	-0.00459062
0.0317924	0.225283	0.0194502	0.226121	-4.93452	100294	0.000135557	-0.751236	2.57378e+08	1.90432e+06	3	38	0.00508855	0.0225037	0	-1.07259	4.3	0.10887	0.13012	0.281705	2.8311e-06	4.05833e-06	8.03462e-07	1.99843e-06	6.72611e-07	7.95341e-07	0.458103	0.132519	0.467392	9.84442e-06	2.27187e-05	1.34243e-05	7.94739e-05	2.16269e-05	5.38372e-05	4.40603	0.380404	4.42242	4.93452	1.90432e+09	2.20568e+10	2.21389e+10	-85.0655	0.0000000E+000	0.0000000E+000	0.0000000E+000	85.0655	0.0000000E+000	0.0000000E+000	0.0000000E+000	-85.0655	0.0000000E+000	0.0000000E+000	0.0000000E+000	-4.93452	0.0000000E+000	0.0000000E+000	0.0000000E+000	4.93452	11.5825	85.0655	-0.031687
0.0199946	0.229524	0.0141961	0.229962	-3.53924	100842	0.000114295	-0.84876	5.60711e+08	2.13679e+06	3	38	0.00508682	0.0221202	0	-1.2352	4.3	0.140696	0.109664	0.251826	1.68751e-06	6.09665e-06	1.28263e-06	2.23003e-06	8.32699e-07	4.89766e-07	0.196783	0.127786	0.617921	1.28751e-05	2.75689e-05	5.70465e-06	1.60984e-05	1.20033e-05	1.74099e-05	4.34024	0.268444	4.34854	3.53924	2.13679e+09	3.45479e+10	3.46139e+10	-86.4608	0.0000000E+000	0.0000000E+000	0.0000000E+000	86.4608	0.0000000E+000	0.0000000E+000	0.0000000E+000	-86.4608	0.0000000E+000	0.0000000E+000	0.0000000E+000	-3.53924	0.0000000E+000	0.0000000E+000	0.0000000E+000	3.53924	16.1681	86.4608	-0.0988938