File: Python/Data/GoldElectrode/240322/Carbon/240322-CVEIS-Activation-5mM_Fe2Fe3-1M_H2SO4-0000RPM-Ag_AgCl_BLF8-GC_RDE_10_PEIS_C15.mpt
EC-Lab ASCII FILE
Nb header lines : 66

Potentio Electrochemical Impedance Spectroscopy

Run on channel : 15 (SN 19485)
User :
Electrode connection : standard
Potential control : Ewe
Ewe ctrl range : min = -2.50 V, max = 2.50 V
Ewe,I filtering : 50 kHz
Safety Limits :
	Do not start on E overload
Channel : Floating
Acquisition started on : 03/22/2024 12:39:19.547
Loaded Setting File :  C:\Data\mathias\GoldElectrode\240322-CVEIS-Activation-5mM_Fe2Fe3-1M_H2SO4-0000RPM-Ag_AgCl_BLF8-Au_RDE.mps
Saved on :
	File : 240322-CVEIS-Activation-5mM_Fe2Fe3-1M_H2SO4-0000RPM-Ag_AgCl_BLF8-GC_RDE_10_PEIS_C15.mpr
	Directory : C:\Data\mathias\GoldElectrode\
	Host : 192.168.0.1
Device : VMP-300 (SN 0826)
Address : USB
EC-Lab for windows v11.52 (software)
Internet server v11.52 (firmware)
Command interpretor v11.52 (firmware)
Electrode material :
Initial state :
Electrolyte :
Comments :
Cable : special
Electrode surface area : 0.001 cm²
Characteristic mass : 0.001 g
Equivalent Weight : 0.000 g/eq.
Density : 0.000 g/cm3
Volume (V) : 0.001 cm³
Record EIS quality indicators
Cycle Definition : Charge/Discharge alternance
Mode                Single sine
E (V)               0.0000
vs.                 Eoc
tE (h:m:s)          0:00:0.0000
record              0
dI                  0.000
unit dI             mA
dt (s)              0.000
fi                  100.000
unit fi             kHz
ff                  100.000
unit ff             Hz
Nd                  10
Points              per decade
spacing             Logarithmic
Va (mV)             5.0
pw                  0.10
Na                  2
corr                0
E range min (V)     -2.500
E range max (V)     2.500
I Range             Auto
Bandwidth           8
nc cycles           0
goto Ns'            0
nr cycles           0
inc. cycle          0

freq/Hz	Re(Z)/Ohm	-Im(Z)/Ohm	|Z|/Ohm	Phase(Z)/deg	time/s	<Ewe>/V	<I>/mA	Cs/µF	Cp/µF	cycle number	I Range	|Ewe|/V	|I|/A	Ns	(Q-Qo)/mA.h	THD Ewe/%	NSD Ewe/%	NSR Ewe/%	|Ewe h2|/V	|Ewe h3|/V	|Ewe h4|/V	|Ewe h5|/V	|Ewe h6|/V	|Ewe h7|/V	THD I/%	NSD I/%	NSR I/%	|I h2|/A	|I h3|/A	|I h4|/A	|I h5|/A	|I h6|/A	|I h7|/A	Re(Y)/Ohm-1	Im(Y)/Ohm-1	|Y|/Ohm-1	Phase(Y)/deg	Re(C)/nF	Im(C)/nF	|C|/nF	Phase(C)/deg	Re(M)	Im(M)	|M|	Phase(M)/deg	Re(Permittivity)	Im(Permittivity)	|Permittivity|	Phase(Permittivity)/deg	Re(Resistivity)/Ohm.cm	Im(Resistivity)/Ohm.cm	|Resistivity|/Ohm.cm	Phase(Resistivity)/deg	Re(Conductivity)/mS/cm	Im(Conductivity)/mS/cm	|Conductivity|/mS/cm	Phase(Conductivity)/deg	Tan(Delta)	Loss Angle(Delta)/deg	dq/mA.h
100004	2.94466	0.144774	2.94822	-2.81467	1552.43	0.441177	-0.176383	10.9929	0.0265079	1	37	0.00481909	0.00163458	0	-4.22502e-05	1.55069	0.716361	27.6949	3.9866e-05	1.73641e-05	3.14638e-05	1.43067e-05	1.80679e-05	3.23415e-05	0.499391	0.403305	10.747	3.01778e-06	2.0817e-06	5.40883e-06	3.0476e-07	3.40676e-06	2.58695e-06	0.338779	0.016656	0.339188	2.81467	26.5079	539.163	539.814	-87.1853	0.0000000E+000	0.0000000E+000	0.0000000E+000	87.1853	0.0000000E+000	0.0000000E+000	0.0000000E+000	-87.1853	0.0000000E+000	0.0000000E+000	0.0000000E+000	-2.81467	0.0000000E+000	0.0000000E+000	0.0000000E+000	2.81467	20.3397	87.1853	-4.22502e-05
63093.8	2.91803	0.209387	2.92553	-4.10429	1554.06	0.441161	-0.0762721	12.0472	0.0617123	1	37	0.00512944	0.00175334	0	-7.8237e-05	1.25934	0.783768	25.4824	2.62908e-05	3.84056e-05	2.44054e-05	1.38213e-05	2.15862e-05	1.90111e-05	0.384041	0.31159	10.1136	2.6385e-06	2.99719e-06	2.54627e-06	1.46315e-06	2.09138e-06	3.49467e-06	0.340941	0.0244646	0.341818	4.10429	61.7123	860.029	862.24	-85.8957	0.0000000E+000	0.0000000E+000	0.0000000E+000	85.8957	0.0000000E+000	0.0000000E+000	0.0000000E+000	-85.8957	0.0000000E+000	0.0000000E+000	0.0000000E+000	-4.10429	0.0000000E+000	0.0000000E+000	0.0000000E+000	4.10429	13.9361	85.8957	-1.90373e-05
39814.1	2.95686	0.319092	2.97402	-6.15929	1555.69	0.441162	-0.0727918	12.5276	0.144215	1	37	0.00518648	0.00174393	0	-0.000110808	0.952575	0.611613	24.7146	1.65757e-05	8.12437e-06	1.31871e-05	1.70179e-05	1.02476e-05	2.89853e-05	0.593567	0.222951	10.2029	3.12654e-06	2.63276e-06	3.72498e-06	3.79781e-06	5.59257e-06	4.8445e-06	0.334304	0.0360767	0.336245	6.15929	144.215	1336.37	1344.12	-83.8407	0.0000000E+000	0.0000000E+000	0.0000000E+000	83.8407	0.0000000E+000	0.0000000E+000	0.0000000E+000	-83.8407	0.0000000E+000	0.0000000E+000	0.0000000E+000	-6.15929	0.0000000E+000	0.0000000E+000	0.0000000E+000	6.15929	9.26648	83.8407	-1.70769e-05
25116.9	2.97865	0.472708	3.01593	-9.01757	1557.32	0.44116	-0.0773143	13.4048	0.329311	1	37	0.00505425	0.00167585	0	-0.00014861	1.20729	1.56856	25.3638	1.9868e-05	1.60593e-05	3.34485e-05	2.61076e-05	1.97315e-05	2.58686e-05	0.652567	0.343403	10.629	6.50492e-06	2.4485e-06	3.53644e-06	5.05322e-06	3.61116e-06	3.43525e-06	0.327475	0.0519699	0.331573	9.01757	329.311	2075.07	2101.04	-80.9824	0.0000000E+000	0.0000000E+000	0.0000000E+000	80.9824	0.0000000E+000	0.0000000E+000	0.0000000E+000	-80.9824	0.0000000E+000	0.0000000E+000	0.0000000E+000	-9.01757	0.0000000E+000	0.0000000E+000	0.0000000E+000	9.01757	6.30124	80.9824	-1.86721e-05
15847.7	3.03404	0.677328	3.10872	-12.5845	1558.95	0.441176	-0.0714145	14.8271	0.703864	1	37	0.00507685	0.0016331	0	-0.000181393	2.19617	0.525718	25.5834	3.77429e-05	3.61169e-05	1.33643e-05	1.25407e-05	2.16945e-05	9.32685e-05	0.638281	0.270308	10.8413	3.83501e-06	1.64905e-06	4.08252e-06	6.20051e-06	3.83443e-06	3.34159e-06	0.313947	0.0700865	0.321675	12.5845	703.864	3152.91	3230.52	-77.4155	0.0000000E+000	0.0000000E+000	0.0000000E+000	77.4155	0.0000000E+000	0.0000000E+000	0.0000000E+000	-77.4155	0.0000000E+000	0.0000000E+000	0.0000000E+000	-12.5845	0.0000000E+000	0.0000000E+000	0.0000000E+000	12.5845	4.47943	77.4155	-1.37422e-05
10002.2	3.10201	0.998942	3.25889	-17.8501	1560.58	0.441139	-0.075509	15.9288	1.49667	1	37	0.00504852	0.00154915	0	-0.000212956	1.32127	0.816907	25.2973	3.51141e-05	3.47814e-05	1.92917e-05	8.43479e-06	2.94752e-05	2.05056e-05	0.628698	0.25152	11.633	5.83555e-06	1.88753e-06	2.77059e-06	3.03421e-06	3.59988e-06	4.67698e-06	0.292082	0.0940592	0.306853	17.8501	1496.67	4647.59	4882.63	-72.1498	0.0000000E+000	0.0000000E+000	0.0000000E+000	72.1498	0.0000000E+000	0.0000000E+000	0.0000000E+000	-72.1498	0.0000000E+000	0.0000000E+000	0.0000000E+000	-17.8501	0.0000000E+000	0.0000000E+000	0.0000000E+000	17.8501	3.10529	72.1498	-1.2754e-05
6307.74	3.19477	1.48902	3.52473	-24.9893	1562.33	0.441037	-0.0667803	16.9452	3.02409	1	37	0.00506158	0.00143602	0	-0.000247132	1.31021	0.813479	25.5151	3.04598e-05	4.51818e-05	1.43402e-05	2.0341e-05	1.22942e-05	1.7077e-05	0.596305	0.485033	12.6552	5.20452e-06	2.66729e-06	1.64141e-06	2.67376e-06	4.68574e-06	1.57509e-06	0.257151	0.119853	0.28371	24.9893	3024.09	6488.35	7158.48	-65.0107	0.0000000E+000	0.0000000E+000	0.0000000E+000	65.0107	0.0000000E+000	0.0000000E+000	0.0000000E+000	-65.0107	0.0000000E+000	0.0000000E+000	0.0000000E+000	-24.9893	0.0000000E+000	0.0000000E+000	0.0000000E+000	24.9893	2.14556	65.0107	-1.89385e-05
3981.28	3.31442	2.26365	4.01366	-34.332	1564.31	0.441057	-0.00238542	17.6599	5.61728	1	38	0.00507493	0.00126441	0	-0.000267246	1.2884	0.46785	24.1411	3.54251e-05	1.68868e-05	2.11754e-05	1.45111e-05	2.4037e-05	3.46167e-05	0.162007	0.128762	2.37354	1.61584e-06	2.0311e-07	4.74455e-07	6.30443e-07	5.24377e-07	4.86881e-07	0.205743	0.140517	0.249149	34.332	5617.28	8224.76	9959.94	-55.668	0.0000000E+000	0.0000000E+000	0.0000000E+000	55.668	0.0000000E+000	0.0000000E+000	0.0000000E+000	-55.668	0.0000000E+000	0.0000000E+000	0.0000000E+000	-34.332	0.0000000E+000	0.0000000E+000	0.0000000E+000	34.332	1.46419	55.668	-6.52705e-06
2512.41	3.46917	3.40923	4.86395	-44.5007	1565.8	0.44106	-0.00341321	18.5812	9.12867	1	38	0.00546842	0.00112427	0	-0.000268494	1.16398	0.959706	22.6983	2.06911e-05	1.57887e-05	1.32823e-05	3.4386e-05	3.2474e-05	2.64043e-05	0.280908	0.0837043	2.64703	2.77832e-06	6.0177e-07	9.15577e-07	2.70799e-07	6.00492e-07	6.10608e-07	0.146638	0.144105	0.205594	44.5007	9128.67	9289.18	13023.9	-45.4993	0.0000000E+000	0.0000000E+000	0.0000000E+000	45.4993	0.0000000E+000	0.0000000E+000	0.0000000E+000	-45.4993	0.0000000E+000	0.0000000E+000	0.0000000E+000	-44.5007	0.0000000E+000	0.0000000E+000	0.0000000E+000	44.5007	1.01758	45.4993	-1.43673e-06
1584.49	3.68255	5.21384	6.3832	-54.7663	1567.28	0.441059	-0.00448383	19.2652	12.8532	1	38	0.00525331	0.000822991	0	-0.00026911	1.26727	0.65486	23.7542	3.78923e-05	2.82291e-05	1.26548e-05	2.1542e-05	1.07853e-05	3.53385e-05	0.490106	0.0853411	3.63047	3.5455e-06	8.07189e-07	7.50934e-07	8.32644e-07	6.5887e-07	7.01942e-07	0.0903798	0.127962	0.156661	54.7663	12853.2	9078.23	15735.9	-35.2337	0.0000000E+000	0.0000000E+000	0.0000000E+000	35.2337	0.0000000E+000	0.0000000E+000	0.0000000E+000	-35.2337	0.0000000E+000	0.0000000E+000	0.0000000E+000	-54.7663	0.0000000E+000	0.0000000E+000	0.0000000E+000	54.7663	0.706303	35.2337	-7.91483e-07
999.682	3.97073	8.00734	8.9378	-63.6238	1568.77	0.441061	-0.00453224	19.8825	15.9583	1	38	0.00501401	0.000560989	0	-0.000271165	1.40904	0.696661	24.4491	2.34969e-05	2.95314e-05	2.68843e-05	3.47953e-05	1.2626e-05	2.96169e-05	0.550994	0.163623	5.35404	2.57195e-06	1.27147e-06	5.85356e-07	6.67322e-07	4.61767e-07	3.9807e-07	0.0497061	0.100237	0.111884	63.6238	15958.3	7913.49	17812.6	-26.3762	0.0000000E+000	0.0000000E+000	0.0000000E+000	26.3762	0.0000000E+000	0.0000000E+000	0.0000000E+000	-26.3762	0.0000000E+000	0.0000000E+000	0.0000000E+000	-63.6238	0.0000000E+000	0.0000000E+000	0.0000000E+000	63.6238	0.495887	26.3762	-5.96908e-07
631.01	4.44942	12.2729	13.0545	-70.0724	1570.26	0.441068	-0.00138186	20.5512	18.1638	1	38	0.00487045	0.000373084	0	-0.000272763	1.5102	0.674667	25.0897	1.88199e-05	4.92219e-05	1.44571e-05	2.66128e-05	2.30417e-05	1.81363e-05	0.849157	0.233421	8.07989	2.49443e-06	1.29528e-06	3.60343e-07	1.06221e-06	8.88115e-07	8.24351e-08	0.0261084	0.0720151	0.0766017	70.0724	18163.8	6585.13	19320.7	-19.9276	0.0000000E+000	0.0000000E+000	0.0000000E+000	19.9276	0.0000000E+000	0.0000000E+000	0.0000000E+000	-19.9276	0.0000000E+000	0.0000000E+000	0.0000000E+000	-70.0724	0.0000000E+000	0.0000000E+000	0.0000000E+000	70.0724	0.362541	19.9276	-3.84785e-07
398.089	5.28334	18.9593	19.6817	-74.4286	1571.74	0.441073	-0.00208009	21.0871	19.5676	1	38	0.00481122	0.000244452	0	-0.000273878	1.73724	0.586758	26.5791	3.19395e-05	3.51421e-05	3.39499e-05	3.17906e-05	3.67086e-05	2.80184e-05	0.813403	0.426415	12.1317	1.13309e-06	7.05939e-07	7.66049e-07	1.09123e-06	3.35072e-07	3.69082e-07	0.013639	0.0489438	0.0508086	74.4286	19567.6	5452.84	20313.2	-15.5714	0.0000000E+000	0.0000000E+000	0.0000000E+000	15.5714	0.0000000E+000	0.0000000E+000	0.0000000E+000	-15.5714	0.0000000E+000	0.0000000E+000	0.0000000E+000	-74.4286	0.0000000E+000	0.0000000E+000	0.0000000E+000	74.4286	0.278667	15.5714	-7.92809e-07
251.206	6.6299	29.3401	30.0798	-77.2669	1573.48	0.441076	0.00186302	21.5938	20.5448	1	39	0.00494077	0.000164256	0	-0.00027473	1.18161	0.357106	25.68	1.27965e-05	2.40492e-05	2.32689e-05	1.70329e-05	3.6743e-05	1.81264e-05	0.905307	0.235282	7.78586	1.1194e-06	3.38279e-07	2.24276e-07	7.66812e-07	3.81317e-07	1.03575e-07	0.00732752	0.0324273	0.0332449	77.2669	20544.8	4642.45	21062.8	-12.7331	0.0000000E+000	0.0000000E+000	0.0000000E+000	12.7331	0.0000000E+000	0.0000000E+000	0.0000000E+000	-12.7331	0.0000000E+000	0.0000000E+000	0.0000000E+000	-77.2669	0.0000000E+000	0.0000000E+000	0.0000000E+000	77.2669	0.225968	12.7332	-6.31139e-08
158.529	8.79802	45.0949	45.9451	-78.9603	1574.97	0.441077	0.00141217	22.263	21.4467	1	39	0.00483915	0.000105325	0	-0.000274232	1.24558	0.849569	26.2125	2.09213e-05	1.72003e-05	2.05021e-05	3.17497e-05	1.53211e-05	2.85733e-05	1.01493	0.398064	12.4318	5.20357e-07	3.92914e-07	1.83739e-07	5.80409e-07	3.91054e-07	2.85247e-07	0.00416779	0.0213623	0.0217651	78.9603	21446.7	4184.25	21851	-11.0397	0.0000000E+000	0.0000000E+000	0.0000000E+000	11.0397	0.0000000E+000	0.0000000E+000	0.0000000E+000	-11.0397	0.0000000E+000	0.0000000E+000	0.0000000E+000	-78.9603	0.0000000E+000	0.0000000E+000	0.0000000E+000	78.9603	0.1951	11.0397	1.50956e-07
99.9682	13.7604	68.6757	70.0407	-78.6698	1576.45	0.441064	0.00129251	23.1822	22.2875	1	39	0.00476864	6.80838e-05	0	-0.000273653	1.73833	1.08642	26.4324	1.81538e-05	2.60364e-05	1.65901e-05	2.89161e-05	4.12166e-05	4.82212e-05	1.3226	0.520606	17.6657	6.4684e-07	3.3493e-07	1.70588e-07	1.73536e-07	3.01782e-07	2.88885e-07	0.00280499	0.0139992	0.0142774	78.6698	22287.5	4465.7	22730.4	-11.3302	0.0000000E+000	0.0000000E+000	0.0000000E+000	11.3302	0.0000000E+000	0.0000000E+000	0.0000000E+000	-11.3302	0.0000000E+000	0.0000000E+000	0.0000000E+000	-78.6698	0.0000000E+000	0.0000000E+000	0.0000000E+000	78.6698	0.200368	11.3302	2.10731e-07