File: Python/Data/GoldElectrode/240322/Carbon/240322-CVEIS-Activation-5mM_Fe2Fe3-1M_H2SO4-0000RPM-Ag_AgCl_BLF8-GC_RDE_02_PEIS_C15.mpt
EC-Lab ASCII FILE
Nb header lines : 66

Potentio Electrochemical Impedance Spectroscopy

Run on channel : 15 (SN 19485)
User :
Electrode connection : standard
Potential control : Ewe
Ewe ctrl range : min = -2.50 V, max = 2.50 V
Ewe,I filtering : 50 kHz
Safety Limits :
	Do not start on E overload
Channel : Floating
Acquisition started on : 03/22/2024 12:39:19.547
Loaded Setting File :  C:\Data\mathias\GoldElectrode\240322-CVEIS-Activation-5mM_Fe2Fe3-1M_H2SO4-0000RPM-Ag_AgCl_BLF8-Au_RDE.mps
Saved on :
	File : 240322-CVEIS-Activation-5mM_Fe2Fe3-1M_H2SO4-0000RPM-Ag_AgCl_BLF8-GC_RDE_02_PEIS_C15.mpr
	Directory : C:\Data\mathias\GoldElectrode\
	Host : 192.168.0.1
Device : VMP-300 (SN 0826)
Address : USB
EC-Lab for windows v11.52 (software)
Internet server v11.52 (firmware)
Command interpretor v11.52 (firmware)
Electrode material :
Initial state :
Electrolyte :
Comments :
Cable : special
Electrode surface area : 0.001 cm²
Characteristic mass : 0.001 g
Equivalent Weight : 0.000 g/eq.
Density : 0.000 g/cm3
Volume (V) : 0.001 cm³
Record EIS quality indicators
Cycle Definition : Charge/Discharge alternance
Mode                Single sine
E (V)               0.0000
vs.                 Eoc
tE (h:m:s)          0:00:0.0000
record              0
dI                  0.000
unit dI             mA
dt (s)              0.000
fi                  100.000
unit fi             kHz
ff                  100.000
unit ff             Hz
Nd                  10
Points              per decade
spacing             Logarithmic
Va (mV)             5.0
pw                  0.10
Na                  2
corr                0
E range min (V)     -2.500
E range max (V)     2.500
I Range             Auto
Bandwidth           8
nc cycles           0
goto Ns'            0
nr cycles           0
inc. cycle          0

freq/Hz	Re(Z)/Ohm	-Im(Z)/Ohm	|Z|/Ohm	Phase(Z)/deg	time/s	<Ewe>/V	<I>/mA	Cs/µF	Cp/µF	cycle number	I Range	|Ewe|/V	|I|/A	Ns	(Q-Qo)/mA.h	THD Ewe/%	NSD Ewe/%	NSR Ewe/%	|Ewe h2|/V	|Ewe h3|/V	|Ewe h4|/V	|Ewe h5|/V	|Ewe h6|/V	|Ewe h7|/V	THD I/%	NSD I/%	NSR I/%	|I h2|/A	|I h3|/A	|I h4|/A	|I h5|/A	|I h6|/A	|I h7|/A	Re(Y)/Ohm-1	Im(Y)/Ohm-1	|Y|/Ohm-1	Phase(Y)/deg	Re(C)/nF	Im(C)/nF	|C|/nF	Phase(C)/deg	Re(M)	Im(M)	|M|	Phase(M)/deg	Re(Permittivity)	Im(Permittivity)	|Permittivity|	Phase(Permittivity)/deg	Re(Resistivity)/Ohm.cm	Im(Resistivity)/Ohm.cm	|Resistivity|/Ohm.cm	Phase(Resistivity)/deg	Re(Conductivity)/mS/cm	Im(Conductivity)/mS/cm	|Conductivity|/mS/cm	Phase(Conductivity)/deg	Tan(Delta)	Loss Angle(Delta)/deg	dq/mA.h
100004	3.00358	0.332756	3.02196	-6.32182	20.7515	0.441182	-0.203853	4.78275	0.0579901	1	37	0.00482106	0.00159535	0	-5.63432e-05	0.712984	0.56346	26.9543	1.82973e-05	8.15076e-06	1.20878e-05	1.27935e-05	1.11598e-05	1.72113e-05	0.5424	0.518726	11.1333	4.99808e-06	2.47224e-06	1.76972e-06	3.71595e-06	2.84806e-06	3.69918e-06	0.328899	0.0364376	0.330912	6.32182	57.9901	523.44	526.643	-83.6782	0.0000000E+000	0.0000000E+000	0.0000000E+000	83.6782	0.0000000E+000	0.0000000E+000	0.0000000E+000	-83.6782	0.0000000E+000	0.0000000E+000	0.0000000E+000	-6.32182	0.0000000E+000	0.0000000E+000	0.0000000E+000	6.32182	9.02636	83.6782	-5.63432e-05
63093.8	3.00902	0.489273	3.04854	-9.23557	22.3825	0.441151	-0.106106	5.15563	0.132801	1	37	0.00513503	0.00168442	0	-0.000105981	1.50135	0.948261	25.2248	1.78628e-05	1.51199e-05	4.08035e-05	5.16143e-05	2.02837e-05	2.07154e-05	0.529374	0.363065	10.4725	6.66003e-07	2.89291e-06	3.15459e-06	5.44e-06	3.095e-06	3.35047e-06	0.323773	0.0526462	0.328026	9.23557	132.801	816.722	827.449	-80.7644	0.0000000E+000	0.0000000E+000	0.0000000E+000	80.7644	0.0000000E+000	0.0000000E+000	0.0000000E+000	-80.7644	0.0000000E+000	0.0000000E+000	0.0000000E+000	-9.23557	0.0000000E+000	0.0000000E+000	0.0000000E+000	9.23557	6.14999	80.7644	-2.39336e-05
39814.1	3.07396	0.692717	3.15104	-12.6995	24.0125	0.441175	-0.102086	5.77069	0.278889	1	37	0.00518196	0.00164452	0	-0.000154367	0.885237	0.379107	24.8648	8.70962e-06	1.61345e-05	1.5358e-05	1.72975e-05	2.00105e-05	2.09966e-05	0.421921	0.463752	10.7498	3.45381e-06	6.15735e-07	2.61537e-06	2.45177e-06	3.17934e-06	2.90832e-06	0.309592	0.0697666	0.317355	12.6995	278.889	1237.58	1268.61	-77.3005	0.0000000E+000	0.0000000E+000	0.0000000E+000	77.3005	0.0000000E+000	0.0000000E+000	0.0000000E+000	-77.3005	0.0000000E+000	0.0000000E+000	0.0000000E+000	-12.6995	0.0000000E+000	0.0000000E+000	0.0000000E+000	12.6995	4.43753	77.3005	-2.40885e-05
25116.9	3.15351	0.981235	3.30264	-17.2839	25.6425	0.441159	-0.097917	6.45775	0.570038	1	37	0.00522135	0.00158096	0	-0.000202851	1.07142	1.18571	24.6726	3.01429e-05	3.28182e-05	1.00732e-05	9.66065e-06	1.59997e-05	1.90677e-05	0.704721	0.191687	11.2859	2.67248e-06	3.13058e-06	5.20804e-06	4.265e-06	5.45407e-06	3.86994e-06	0.289115	0.08996	0.302788	17.2839	570.038	1832	1918.63	-72.7161	0.0000000E+000	0.0000000E+000	0.0000000E+000	72.7161	0.0000000E+000	0.0000000E+000	0.0000000E+000	-72.7161	0.0000000E+000	0.0000000E+000	0.0000000E+000	-17.2839	0.0000000E+000	0.0000000E+000	0.0000000E+000	17.2839	3.21382	72.7161	-2.49854e-05
15847.7	3.25435	1.45182	3.56351	-24.0424	27.2725	0.441195	-0.0980659	6.91739	1.14818	1	37	0.00506781	0.00142214	0	-0.000249907	1.1759	0.491581	25.6353	3.17125e-05	1.15651e-05	3.60114e-05	1.48781e-05	2.41335e-05	8.60089e-06	0.788983	0.446637	12.6187	5.21307e-06	6.43349e-06	3.49412e-06	3.19364e-06	4.45568e-06	2.52149e-06	0.256277	0.114329	0.280623	24.0424	1148.18	2573.73	2818.23	-65.9576	0.0000000E+000	0.0000000E+000	0.0000000E+000	65.9576	0.0000000E+000	0.0000000E+000	0.0000000E+000	-65.9576	0.0000000E+000	0.0000000E+000	0.0000000E+000	-24.0424	0.0000000E+000	0.0000000E+000	0.0000000E+000	24.0424	2.24157	65.9576	-2.49131e-05
10002.2	3.41752	2.14541	4.03512	-32.1192	28.9035	0.441194	-0.0938225	7.41676	2.09662	1	37	0.00510988	0.00126635	0	-0.000293785	1.07981	0.436409	25.0999	2.37731e-05	2.43655e-05	2.20896e-05	2.96914e-05	9.97746e-06	1.65519e-05	0.937548	0.31813	14.4015	5.63524e-06	3.05878e-06	7.37438e-06	4.16759e-06	1.13004e-06	3.76081e-06	0.209893	0.131764	0.247824	32.1192	2096.62	3339.81	3943.36	-57.8808	0.0000000E+000	0.0000000E+000	0.0000000E+000	57.8808	0.0000000E+000	0.0000000E+000	0.0000000E+000	-57.8808	0.0000000E+000	0.0000000E+000	0.0000000E+000	-32.1192	0.0000000E+000	0.0000000E+000	0.0000000E+000	32.1192	1.59295	57.8808	-2.20267e-05
6307.74	3.60858	3.22756	4.84138	-41.8099	30.9916	0.441036	-0.00844043	7.81759	3.47442	1	38	0.00508909	0.00105116	0	-0.000306783	1.51002	0.422874	24.8444	2.53544e-05	3.99842e-05	2.02246e-05	2.02727e-05	1.85186e-05	4.16417e-05	0.155789	0.118935	2.84572	5.45671e-07	6.5639e-07	3.75445e-07	8.44934e-07	5.57093e-07	5.9074e-07	0.153956	0.137701	0.206553	41.8099	3474.42	3884.58	5211.68	-48.1901	0.0000000E+000	0.0000000E+000	0.0000000E+000	48.1901	0.0000000E+000	0.0000000E+000	0.0000000E+000	-48.1901	0.0000000E+000	0.0000000E+000	0.0000000E+000	-41.8099	0.0000000E+000	0.0000000E+000	0.0000000E+000	41.8099	1.11805	48.1901	-1.52912e-06
3981.28	3.88783	4.85831	6.22241	-51.3317	32.7127	0.441021	-0.00851119	8.22835	5.01609	1	38	0.00519998	0.000835686	0	-0.000308763	1.03107	0.48135	23.5677	1.54271e-05	3.87705e-05	1.10995e-05	1.56316e-05	1.42126e-05	2.20639e-05	0.208739	0.109609	3.595	1.04161e-06	6.77497e-07	7.05188e-07	5.90615e-07	2.99819e-07	6.25165e-07	0.100413	0.125478	0.160709	51.3317	5016.09	4014.1	6424.5	-38.6683	0.0000000E+000	0.0000000E+000	0.0000000E+000	38.6683	0.0000000E+000	0.0000000E+000	0.0000000E+000	-38.6683	0.0000000E+000	0.0000000E+000	0.0000000E+000	-51.3317	0.0000000E+000	0.0000000E+000	0.0000000E+000	51.3317	0.800244	38.6683	-9.649e-07
2512.41	4.28735	7.30009	8.46597	-59.5742	34.1986	0.441062	-0.0083641	8.67764	6.45215	1	38	0.00484566	0.000572369	0	-0.000311966	1.33136	1.1285	25.8373	2.21784e-05	1.50502e-05	1.41214e-05	3.72935e-05	3.41962e-05	2.02373e-05	0.387772	0.210287	5.22884	6.56865e-07	1.81857e-06	3.28389e-07	5.8627e-07	5.91057e-07	5.71437e-07	0.0598185	0.101853	0.11812	59.5742	6452.15	3789.35	7482.61	-30.4258	0.0000000E+000	0.0000000E+000	0.0000000E+000	30.4258	0.0000000E+000	0.0000000E+000	0.0000000E+000	-30.4258	0.0000000E+000	0.0000000E+000	0.0000000E+000	-59.5742	0.0000000E+000	0.0000000E+000	0.0000000E+000	59.5742	0.587301	30.4258	-1.98369e-06
1584.49	4.87531	11.1635	12.1816	-66.4082	35.6848	0.441064	-0.00765658	8.99766	7.55647	1	38	0.00458844	0.000376668	0	-0.000315517	1.29484	0.867359	27.1092	2.26305e-05	1.73843e-05	1.0977e-05	3.23064e-05	3.17358e-05	2.01292e-05	0.414185	0.157574	7.87554	7.46335e-07	6.32578e-07	3.96133e-07	2.54356e-07	4.60005e-07	7.99564e-07	0.0328542	0.0752296	0.0820908	66.4082	7556.47	3300.05	8245.64	-23.5918	0.0000000E+000	0.0000000E+000	0.0000000E+000	23.5918	0.0000000E+000	0.0000000E+000	0.0000000E+000	-23.5918	0.0000000E+000	0.0000000E+000	0.0000000E+000	-66.4082	0.0000000E+000	0.0000000E+000	0.0000000E+000	66.4082	0.436719	23.5918	-1.89624e-06
999.682	5.83713	16.9726	17.9483	-71.0211	37.3928	0.441027	-0.0074797	9.38017	8.38805	1	38	0.00492684	0.000274502	0	-0.000319042	1.00404	1.31613	25.4037	1.49926e-05	1.60491e-05	1.46687e-05	1.43217e-05	1.04143e-05	3.48754e-05	0.807946	0.29121	10.8923	6.61968e-07	1.34932e-06	7.31762e-07	8.62644e-07	6.14975e-07	9.14877e-07	0.0181198	0.0526869	0.0557157	71.0211	8388.05	2884.78	8870.25	-18.9789	0.0000000E+000	0.0000000E+000	0.0000000E+000	18.9789	0.0000000E+000	0.0000000E+000	0.0000000E+000	-18.9789	0.0000000E+000	0.0000000E+000	0.0000000E+000	-71.0211	0.0000000E+000	0.0000000E+000	0.0000000E+000	71.0211	0.343916	18.9789	-1.50913e-06
631.01	7.05823	25.6223	26.5767	-74.5986	38.8774	0.44108	-0.00568107	9.84387	9.14956	1	38	0.00481549	0.000181192	0	-0.000321275	2.15786	0.563587	25.9329	3.08744e-05	2.87476e-05	2.20231e-05	7.64922e-05	3.01826e-05	2.19183e-05	1.30191	0.427647	16.4205	1.1411e-06	1.00956e-06	2.78285e-07	1.29431e-06	6.55299e-07	6.07216e-07	0.00999294	0.0362757	0.0376269	74.5986	9149.55	2520.45	9490.36	-15.4014	0.0000000E+000	0.0000000E+000	0.0000000E+000	15.4014	0.0000000E+000	0.0000000E+000	0.0000000E+000	-15.4014	0.0000000E+000	0.0000000E+000	0.0000000E+000	-74.5986	0.0000000E+000	0.0000000E+000	0.0000000E+000	74.5986	0.275472	15.4014	-9.3263e-07
398.089	9.24231	38.9845	40.0651	-76.6627	40.6177	0.441066	-0.000224242	10.2553	9.70957	1	39	0.00496431	0.000123906	0	-0.000321589	1.31908	0.489596	25.9256	1.84111e-05	2.85136e-05	1.7755e-05	3.65826e-05	1.68347e-05	3.13569e-05	0.800088	0.228932	10.0965	3.32325e-07	3.86597e-07	2.13467e-07	7.22678e-07	2.1105e-07	2.32569e-07	0.0057577	0.0242862	0.0249594	76.6627	9709.57	2301.91	9978.71	-13.3373	0.0000000E+000	0.0000000E+000	0.0000000E+000	13.3373	0.0000000E+000	0.0000000E+000	0.0000000E+000	-13.3373	0.0000000E+000	0.0000000E+000	0.0000000E+000	-76.6627	0.0000000E+000	0.0000000E+000	0.0000000E+000	76.6627	0.237077	13.3373	-8.06223e-08
251.206	12.6523	59.449	60.7805	-77.9852	42.1028	0.441079	-0.000216415	10.6573	10.1955	1	39	0.00485627	7.98985e-05	0	-0.000321705	1.39208	0.664012	25.2838	2.00035e-05	1.55406e-05	2.13127e-05	2.07596e-05	3.72546e-05	3.17166e-05	1.03079	0.345576	15.4121	3.53734e-07	4.90279e-07	2.63552e-07	3.46453e-07	2.29907e-07	2.20586e-07	0.00342486	0.0160922	0.0164527	77.9852	10195.5	2169.87	10423.8	-12.0148	0.0000000E+000	0.0000000E+000	0.0000000E+000	12.0148	0.0000000E+000	0.0000000E+000	0.0000000E+000	-12.0148	0.0000000E+000	0.0000000E+000	0.0000000E+000	-77.9852	0.0000000E+000	0.0000000E+000	0.0000000E+000	77.9852	0.212827	12.0148	-2.13252e-08
158.529	17.4362	89.4408	91.1245	-78.9687	43.5956	0.441081	-0.000192746	11.2247	10.8138	1	39	0.00477996	5.24553e-05	0	-0.000321799	1.12288	0.584948	26.2016	1.81089e-05	2.19933e-05	1.78402e-05	9.95698e-06	1.86681e-05	2.7251e-05	1.37958	0.658672	23.6499	2.76916e-07	2.40565e-07	2.3466e-07	2.66461e-07	3.49392e-07	2.25079e-07	0.00209981	0.0107712	0.010974	78.9687	10813.8	2108.11	11017.3	-11.0313	0.0000000E+000	0.0000000E+000	0.0000000E+000	11.0313	0.0000000E+000	0.0000000E+000	0.0000000E+000	-11.0313	0.0000000E+000	0.0000000E+000	0.0000000E+000	-78.9687	0.0000000E+000	0.0000000E+000	0.0000000E+000	78.9687	0.194947	11.0312	8.44091e-09
99.9682	26.1259	137.173	139.639	-79.2167	45.0678	0.441016	0.000191568	11.6062	11.1999	1	39	0.00480444	3.44061e-05	0	-0.000321723	1.86478	2.11008	25.3674	2.40858e-05	1.85687e-05	3.60453e-05	2.96446e-05	2.11574e-05	6.46374e-05	1.58704	1.62368	36.0686	2.48774e-07	1.05192e-07	1.26326e-07	3.15794e-07	1.66098e-07	2.5831e-07	0.00133985	0.00703485	0.00716131	79.2167	11199.9	2133.11	11401.2	-10.7833	0.0000000E+000	0.0000000E+000	0.0000000E+000	10.7833	0.0000000E+000	0.0000000E+000	0.0000000E+000	-10.7833	0.0000000E+000	0.0000000E+000	0.0000000E+000	-79.2167	0.0000000E+000	0.0000000E+000	0.0000000E+000	79.2167	0.190459	10.7833	6.55679e-08