File: Python/Data/GoldElectrode/240322/Carbon/240322-CVEIS-Activation-5mM_Fe2Fe3-1M_H2SO4-0000RPM-Ag_AgCl_BLF8-GC_RDE_08_PEIS_C15.mpt
EC-Lab ASCII FILE
Nb header lines : 66

Potentio Electrochemical Impedance Spectroscopy

Run on channel : 15 (SN 19485)
User :
Electrode connection : standard
Potential control : Ewe
Ewe ctrl range : min = -2.50 V, max = 2.50 V
Ewe,I filtering : 50 kHz
Safety Limits :
	Do not start on E overload
Channel : Floating
Acquisition started on : 03/22/2024 12:39:19.547
Loaded Setting File :  C:\Data\mathias\GoldElectrode\240322-CVEIS-Activation-5mM_Fe2Fe3-1M_H2SO4-0000RPM-Ag_AgCl_BLF8-Au_RDE.mps
Saved on :
	File : 240322-CVEIS-Activation-5mM_Fe2Fe3-1M_H2SO4-0000RPM-Ag_AgCl_BLF8-GC_RDE_08_PEIS_C15.mpr
	Directory : C:\Data\mathias\GoldElectrode\
	Host : 192.168.0.1
Device : VMP-300 (SN 0826)
Address : USB
EC-Lab for windows v11.52 (software)
Internet server v11.52 (firmware)
Command interpretor v11.52 (firmware)
Electrode material :
Initial state :
Electrolyte :
Comments :
Cable : special
Electrode surface area : 0.001 cm²
Characteristic mass : 0.001 g
Equivalent Weight : 0.000 g/eq.
Density : 0.000 g/cm3
Volume (V) : 0.001 cm³
Record EIS quality indicators
Cycle Definition : Charge/Discharge alternance
Mode                Single sine
E (V)               0.0000
vs.                 Eoc
tE (h:m:s)          0:00:0.0000
record              0
dI                  0.000
unit dI             mA
dt (s)              0.000
fi                  100.000
unit fi             kHz
ff                  100.000
unit ff             Hz
Nd                  10
Points              per decade
spacing             Logarithmic
Va (mV)             5.0
pw                  0.10
Na                  2
corr                0
E range min (V)     -2.500
E range max (V)     2.500
I Range             Auto
Bandwidth           8
nc cycles           0
goto Ns'            0
nr cycles           0
inc. cycle          0

freq/Hz	Re(Z)/Ohm	-Im(Z)/Ohm	|Z|/Ohm	Phase(Z)/deg	time/s	<Ewe>/V	<I>/mA	Cs/µF	Cp/µF	cycle number	I Range	|Ewe|/V	|I|/A	Ns	(Q-Qo)/mA.h	THD Ewe/%	NSD Ewe/%	NSR Ewe/%	|Ewe h2|/V	|Ewe h3|/V	|Ewe h4|/V	|Ewe h5|/V	|Ewe h6|/V	|Ewe h7|/V	THD I/%	NSD I/%	NSR I/%	|I h2|/A	|I h3|/A	|I h4|/A	|I h5|/A	|I h6|/A	|I h7|/A	Re(Y)/Ohm-1	Im(Y)/Ohm-1	|Y|/Ohm-1	Phase(Y)/deg	Re(C)/nF	Im(C)/nF	|C|/nF	Phase(C)/deg	Re(M)	Im(M)	|M|	Phase(M)/deg	Re(Permittivity)	Im(Permittivity)	|Permittivity|	Phase(Permittivity)/deg	Re(Resistivity)/Ohm.cm	Im(Resistivity)/Ohm.cm	|Resistivity|/Ohm.cm	Phase(Resistivity)/deg	Re(Conductivity)/mS/cm	Im(Conductivity)/mS/cm	|Conductivity|/mS/cm	Phase(Conductivity)/deg	Tan(Delta)	Loss Angle(Delta)/deg	dq/mA.h
100004	2.92277	0.160487	2.92717	-3.14291	1165.21	0.441192	-0.16114	9.91663	0.029809	1	37	0.00479107	0.00163676	0	-4.04762e-05	1.31311	0.677911	26.9523	1.27489e-05	2.57329e-05	2.93393e-05	2.39739e-05	2.85095e-05	2.26598e-05	0.476521	0.467419	10.9802	3.59297e-06	4.41631e-06	2.29099e-06	2.08149e-06	2.10378e-06	3.68312e-06	0.341113	0.0187302	0.341627	3.14291	29.8089	542.878	543.695	-86.8571	0.0000000E+000	0.0000000E+000	0.0000000E+000	86.8571	0.0000000E+000	0.0000000E+000	0.0000000E+000	-86.8571	0.0000000E+000	0.0000000E+000	0.0000000E+000	-3.14291	0.0000000E+000	0.0000000E+000	0.0000000E+000	3.14291	18.2119	86.8571	-4.04762e-05
63093.8	2.93185	0.22106	2.94017	-4.31192	1166.84	0.441153	-0.0782263	11.411	0.0645058	1	37	0.00514507	0.00174992	0	-7.07215e-05	1.22703	0.581113	25.4089	3.03339e-05	1.88573e-05	2.8632e-05	1.95923e-05	2.63524e-05	1.92223e-05	0.516604	0.21039	9.94021	2.9585e-06	2.96792e-06	4.00223e-06	4.54084e-06	3.28289e-06	3.06869e-06	0.339154	0.025572	0.340116	4.31192	64.5058	855.519	857.948	-85.6881	0.0000000E+000	0.0000000E+000	0.0000000E+000	85.6881	0.0000000E+000	0.0000000E+000	0.0000000E+000	-85.6881	0.0000000E+000	0.0000000E+000	0.0000000E+000	-4.31192	0.0000000E+000	0.0000000E+000	0.0000000E+000	4.31192	13.2627	85.6881	-1.44689e-05
39814.1	2.95632	0.348851	2.97684	-6.72987	1168.47	0.441161	-0.0659428	11.4589	0.157367	1	37	0.0051632	0.00173446	0	-0.000102252	1.11199	0.689958	24.8834	2.12296e-05	2.53252e-05	3.13691e-05	2.58642e-05	8.42813e-06	1.42183e-05	0.561726	0.325996	10.3079	6.63121e-06	9.01362e-07	4.11122e-06	3.29526e-06	2.90629e-06	1.40075e-06	0.333613	0.0393668	0.335927	6.72987	157.367	1333.6	1342.85	-83.2701	0.0000000E+000	0.0000000E+000	0.0000000E+000	83.2701	0.0000000E+000	0.0000000E+000	0.0000000E+000	-83.2701	0.0000000E+000	0.0000000E+000	0.0000000E+000	-6.72987	0.0000000E+000	0.0000000E+000	0.0000000E+000	6.72987	8.47447	83.2701	-1.20122e-05
25116.9	3.02983	0.519641	3.07407	-9.73199	1170.1	0.441159	-0.0650867	12.1941	0.348441	1	37	0.0052125	0.00169563	0	-0.000127932	1.22495	0.993799	24.2052	1.48523e-05	3.68265e-05	2.47172e-05	1.92739e-05	2.02407e-05	2.58429e-05	0.559146	0.386704	10.479	4.21462e-06	5.47624e-06	3.28261e-06	2.91352e-06	1.02094e-06	2.76585e-06	0.32062	0.0549889	0.325301	9.73199	348.441	2031.63	2061.29	-80.268	0.0000000E+000	0.0000000E+000	0.0000000E+000	80.268	0.0000000E+000	0.0000000E+000	0.0000000E+000	-80.268	0.0000000E+000	0.0000000E+000	0.0000000E+000	-9.73199	0.0000000E+000	0.0000000E+000	0.0000000E+000	9.73199	5.83064	80.268	-1.29123e-05
15847.7	3.07693	0.761667	3.1698	-13.9036	1171.73	0.441155	-0.0655148	13.1853	0.761299	1	37	0.00518421	0.0016355	0	-0.000157466	1.44299	1.11015	25.122	3.99759e-05	1.66493e-05	2.40794e-05	2.45504e-05	1.61306e-05	4.6321e-05	0.615613	0.470278	10.8591	1.68722e-06	3.65766e-06	4.33512e-06	2.40144e-06	6.17126e-06	3.36019e-06	0.306234	0.0758055	0.315477	13.9036	761.299	3075.44	3168.27	-76.0964	0.0000000E+000	0.0000000E+000	0.0000000E+000	76.0964	0.0000000E+000	0.0000000E+000	0.0000000E+000	-76.0964	0.0000000E+000	0.0000000E+000	0.0000000E+000	-13.9036	0.0000000E+000	0.0000000E+000	0.0000000E+000	13.9036	4.03973	76.0964	-1.71479e-05
10002.2	3.13404	1.10195	3.32212	-19.3721	1173.36	0.441165	-0.0625369	14.4398	1.58875	1	37	0.00513851	0.00154675	0	-0.000184805	1.1284	0.903497	25.2511	1.23977e-05	1.9937e-05	1.64092e-05	3.26411e-05	1.43948e-05	3.26686e-05	0.547479	0.268388	11.6092	2.4422e-06	5.55746e-06	2.89042e-06	3.33897e-06	1.35828e-06	1.23639e-06	0.28397	0.0998462	0.301012	19.3721	1588.75	4518.52	4789.69	-70.6279	0.0000000E+000	0.0000000E+000	0.0000000E+000	70.6279	0.0000000E+000	0.0000000E+000	0.0000000E+000	-70.6279	0.0000000E+000	0.0000000E+000	0.0000000E+000	-19.3721	0.0000000E+000	0.0000000E+000	0.0000000E+000	19.3721	2.84408	70.6279	-1.47603e-05
6307.74	3.23749	1.622	3.62108	-26.6111	1174.93	0.44103	-0.0639142	15.5559	3.12119	1	37	0.00542188	0.00149731	0	-0.000211667	1.51068	0.805139	23.8001	1.24948e-05	6.00552e-05	2.25486e-05	1.86027e-05	2.5326e-05	2.85851e-05	0.660024	0.366182	12.1052	1.02703e-06	6.73068e-06	3.90757e-06	1.23487e-06	2.95333e-06	3.71397e-06	0.246906	0.123701	0.276161	26.6111	3121.19	6229.87	6968.01	-63.3889	0.0000000E+000	0.0000000E+000	0.0000000E+000	63.3889	0.0000000E+000	0.0000000E+000	0.0000000E+000	-63.3889	0.0000000E+000	0.0000000E+000	0.0000000E+000	-26.6111	0.0000000E+000	0.0000000E+000	0.0000000E+000	26.6111	1.99599	63.3889	-1.31079e-05
3981.28	3.38842	2.49916	4.21036	-36.4109	1177.12	0.441045	-0.00278946	15.9957	5.63575	1	38	0.00506001	0.0012018	0	-0.0002331	1.48505	0.756563	25.2828	2.2105e-05	3.18522e-05	2.56541e-05	3.75166e-05	3.74601e-05	2.40593e-05	0.173385	0.107347	2.50212	9.28783e-07	9.98285e-07	4.99248e-07	1.08493e-06	5.84646e-07	5.91007e-07	0.191143	0.140979	0.237509	36.4109	5635.75	7641.09	9494.63	-53.5891	0.0000000E+000	0.0000000E+000	0.0000000E+000	53.5891	0.0000000E+000	0.0000000E+000	0.0000000E+000	-53.5891	0.0000000E+000	0.0000000E+000	0.0000000E+000	-36.4109	0.0000000E+000	0.0000000E+000	0.0000000E+000	36.4109	1.35582	53.5891	-3.52824e-06
2512.41	3.5654	3.79503	5.20714	-46.7869	1178.61	0.441042	-0.00250086	16.6922	8.86637	1	38	0.00535742	0.00102886	0	-0.000233882	1.21289	1.34346	23.5418	7.72821e-06	2.01753e-05	3.17113e-05	4.70767e-05	1.9938e-05	3.10139e-06	0.324235	0.158466	2.86912	2.92828e-06	8.22358e-07	4.97221e-07	9.33577e-07	4.36505e-07	6.48499e-07	0.131495	0.139964	0.192044	46.7869	8866.37	8329.88	12165.5	-43.2131	0.0000000E+000	0.0000000E+000	0.0000000E+000	43.2131	0.0000000E+000	0.0000000E+000	0.0000000E+000	-43.2131	0.0000000E+000	0.0000000E+000	0.0000000E+000	-46.7869	0.0000000E+000	0.0000000E+000	0.0000000E+000	46.7869	0.939492	43.2131	-1.01009e-06
1584.49	3.75002	5.75332	6.86756	-56.9037	1180.1	0.44106	-0.00241708	17.4587	12.253	1	38	0.00505174	0.000735594	0	-0.000235386	1.25447	0.55509	24.2088	3.71119e-05	1.49005e-05	3.33351e-05	2.72095e-05	1.38916e-05	7.02589e-06	0.427402	0.0653277	4.08269	2.45552e-06	1.10026e-06	5.22426e-07	1.34178e-06	2.67892e-07	3.76408e-07	0.0795112	0.121987	0.145612	56.9037	12253	7986.54	14626.1	-33.0963	0.0000000E+000	0.0000000E+000	0.0000000E+000	33.0963	0.0000000E+000	0.0000000E+000	0.0000000E+000	-33.0963	0.0000000E+000	0.0000000E+000	0.0000000E+000	-56.9037	0.0000000E+000	0.0000000E+000	0.0000000E+000	56.9037	0.6518	33.0963	-1.16534e-06
999.682	4.15084	8.78877	9.71967	-64.7191	1181.58	0.441069	-0.00275037	18.1147	14.811	1	38	0.00483299	0.000497238	0	-0.000236723	1.23087	0.913504	25.6827	1.86166e-05	2.90397e-05	1.81224e-05	1.59412e-05	2.87571e-05	2.98929e-05	0.581496	0.174275	6.01241	1.91646e-06	1.52172e-06	4.25213e-07	1.2841e-06	3.07617e-07	4.37691e-07	0.0439373	0.0930304	0.102884	64.7191	14811	6995.06	16379.7	-25.2809	0.0000000E+000	0.0000000E+000	0.0000000E+000	25.2809	0.0000000E+000	0.0000000E+000	0.0000000E+000	-25.2809	0.0000000E+000	0.0000000E+000	0.0000000E+000	-64.7191	0.0000000E+000	0.0000000E+000	0.0000000E+000	64.7191	0.472289	25.2809	-4.49015e-07
631.01	4.69671	13.5245	14.3168	-70.8492	1183.07	0.441062	-0.00244502	18.6493	16.6423	1	38	0.00471807	0.000329548	0	-0.000237854	1.84757	0.516631	26.6156	1.5274e-05	5.86997e-05	3.62746e-05	1.66985e-05	2.68286e-05	2.68874e-05	1.04367	0.226154	9.10129	1.95207e-06	2.3639e-06	4.78768e-07	1.30286e-06	5.6484e-07	3.45822e-07	0.0229141	0.0659825	0.069848	70.8492	16642.3	5779.45	17617.3	-19.1508	0.0000000E+000	0.0000000E+000	0.0000000E+000	19.1508	0.0000000E+000	0.0000000E+000	0.0000000E+000	-19.1508	0.0000000E+000	0.0000000E+000	0.0000000E+000	-70.8492	0.0000000E+000	0.0000000E+000	0.0000000E+000	70.8492	0.347275	19.1508	-5.42993e-07
398.089	5.67973	20.689	21.4545	-74.6489	1184.56	0.44108	-0.00195347	19.3241	17.9698	1	38	0.00464074	0.000216306	0	-0.000238577	1.55011	0.491261	26.023	2.1623e-05	2.9162e-05	2.66957e-05	3.05094e-05	8.19103e-06	3.2092e-05	1.21365	0.494036	13.9935	1.91638e-06	6.50765e-07	7.48305e-07	1.16282e-06	6.17386e-07	4.15367e-07	0.0123393	0.0449473	0.0466103	74.6489	17969.8	4933.23	18634.7	-15.3511	0.0000000E+000	0.0000000E+000	0.0000000E+000	15.3511	0.0000000E+000	0.0000000E+000	0.0000000E+000	-15.3511	0.0000000E+000	0.0000000E+000	0.0000000E+000	-74.6489	0.0000000E+000	0.0000000E+000	0.0000000E+000	74.6489	0.274529	15.3511	-3.33513e-07
251.206	7.15603	32.0397	32.8291	-77.4097	1186.29	0.441072	0.00180245	19.7743	18.8348	1	39	0.0047633	0.000145094	0	-0.000238239	1.49244	0.774475	26.6003	2.89584e-05	2.57027e-05	3.41355e-05	2.39557e-05	2.15029e-05	2.68888e-05	0.864345	0.218165	8.86809	8.05553e-07	3.97108e-07	4.58695e-07	5.63802e-07	1.96795e-07	3.10702e-07	0.00663979	0.0297283	0.0304608	77.4097	18834.8	4206.73	19298.8	-12.5903	0.0000000E+000	0.0000000E+000	0.0000000E+000	12.5903	0.0000000E+000	0.0000000E+000	0.0000000E+000	-12.5903	0.0000000E+000	0.0000000E+000	0.0000000E+000	-77.4097	0.0000000E+000	0.0000000E+000	0.0000000E+000	77.4097	0.223349	12.5903	3.78572e-07
158.529	9.3985	49.0177	49.9106	-79.146	1187.79	0.441042	0.00155847	20.4814	19.7551	1	39	0.00465659	9.32987e-05	0	-0.000237605	1.20048	0.579218	27.9127	1.6587e-05	2.43818e-05	1.60898e-05	3.78797e-05	1.11261e-05	1.94289e-05	0.917044	0.442772	13.4761	3.93882e-07	3.01812e-07	2.83159e-07	4.91037e-07	8.97078e-08	1.61546e-07	0.00377288	0.0196774	0.0200358	79.146	19755.1	3787.78	20114.9	-10.854	0.0000000E+000	0.0000000E+000	0.0000000E+000	10.854	0.0000000E+000	0.0000000E+000	0.0000000E+000	-10.854	0.0000000E+000	0.0000000E+000	0.0000000E+000	-79.146	0.0000000E+000	0.0000000E+000	0.0000000E+000	79.146	0.191737	10.854	4.0987e-07
99.9682	15.0077	75.3147	76.7954	-78.7305	1189.26	0.441055	0.00158699	21.1387	20.3314	1	39	0.00463196	6.03156e-05	0	-0.000236928	1.24463	0.720403	27.5025	1.33187e-05	1.11425e-05	3.15093e-05	2.41389e-05	1.83526e-05	3.1348e-05	1.19378	0.567652	21.1126	4.65657e-07	3.11324e-07	1.75312e-07	2.97535e-07	2.12243e-07	1.24967e-07	0.00254474	0.0127705	0.0130216	78.7305	20331.4	4051.37	20731.2	-11.2695	0.0000000E+000	0.0000000E+000	0.0000000E+000	11.2695	0.0000000E+000	0.0000000E+000	0.0000000E+000	-11.2695	0.0000000E+000	0.0000000E+000	0.0000000E+000	-78.7305	0.0000000E+000	0.0000000E+000	0.0000000E+000	78.7305	0.199266	11.2695	3.40729e-07