File: Python/Data/GoldElectrode/240322/Carbon/240322-CVEIS-PostActivation-5mM_Fe2Fe3-1M_H2SO4-0000RPM-Ag_AgCl_BLF8-GC_RDE_02_PEIS_C15.mpt
EC-Lab ASCII FILE
Nb header lines : 66

Potentio Electrochemical Impedance Spectroscopy

Run on channel : 15 (SN 19485)
User :
Electrode connection : standard
Potential control : Ewe
Ewe ctrl range : min = -1.00 V, max = 1.00 V
Ewe,I filtering : <None>
Safety Limits :
	Do not start on E overload
Channel : Floating
Acquisition started on : 03/22/2024 13:54:23.830
Loaded Setting File :  C:\Data\mathias\GoldElectrode\240322-CVEIS-PostActivation-5mM_Fe2Fe3-1M_H2SO4-0000RPM-Ag_AgCl_BLF8-Au_RDE.mps
Saved on :
	File : 240322-CVEIS-PostActivation-5mM_Fe2Fe3-1M_H2SO4-0000RPM-Ag_AgCl_BLF8-GC_RDE_02_PEIS_C15.mpr
	Directory : C:\Data\mathias\GoldElectrode\
	Host : 192.168.0.1
Device : VMP-300 (SN 0826)
Address : USB
EC-Lab for windows v11.52 (software)
Internet server v11.52 (firmware)
Command interpretor v11.52 (firmware)
Electrode material :
Initial state :
Electrolyte :
Comments :
Cable : special
Electrode surface area : 0.001 cm²
Characteristic mass : 0.001 g
Equivalent Weight : 0.000 g/eq.
Density : 0.000 g/cm3
Volume (V) : 0.001 cm³
Record EIS quality indicators
Cycle Definition : Charge/Discharge alternance
Mode                Single sine
E (V)               0.0000
vs.                 Eoc
tE (h:m:s)          0:00:0.0000
record              0
dI                  0.000
unit dI             mA
dt (s)              0.000
fi                  400.000
unit fi             kHz
ff                  100.000
unit ff             mHz
Nd                  10
Points              per decade
spacing             Logarithmic
Va (mV)             5.0
pw                  0.10
Na                  3
corr                0
E range min (V)     -1.000
E range max (V)     1.000
I Range             Auto
Bandwidth           8
nc cycles           2
goto Ns'            0
nr cycles           0
inc. cycle          1

freq/Hz	Re(Z)/Ohm	-Im(Z)/Ohm	|Z|/Ohm	Phase(Z)/deg	time/s	<Ewe>/V	<I>/mA	Cs/µF	Cp/µF	cycle number	I Range	|Ewe|/V	|I|/A	Ns	(Q-Qo)/mA.h	THD Ewe/%	NSD Ewe/%	NSR Ewe/%	|Ewe h2|/V	|Ewe h3|/V	|Ewe h4|/V	|Ewe h5|/V	|Ewe h6|/V	|Ewe h7|/V	THD I/%	NSD I/%	NSR I/%	|I h2|/A	|I h3|/A	|I h4|/A	|I h5|/A	|I h6|/A	|I h7|/A	Re(Y)/Ohm-1	Im(Y)/Ohm-1	|Y|/Ohm-1	Phase(Y)/deg	Re(C)/nF	Im(C)/nF	|C|/nF	Phase(C)/deg	Re(M)	Im(M)	|M|	Phase(M)/deg	Re(Permittivity)	Im(Permittivity)	|Permittivity|	Phase(Permittivity)/deg	Re(Resistivity)/Ohm.cm	Im(Resistivity)/Ohm.cm	|Resistivity|/Ohm.cm	Phase(Resistivity)/deg	Re(Conductivity)/mS/cm	Im(Conductivity)/mS/cm	|Conductivity|/mS/cm	Phase(Conductivity)/deg	Tan(Delta)	Loss Angle(Delta)/deg	dq/mA.h
399996	3.14435	1.15749	3.35063	-20.2095	142.695	0.439876	-0.00196094	0.343754	0.041023	1	38	0.00499225	0.00148994	0	7.95138e-06	-1	-1	-1	0	0	0	0	0	0	-1	-1	-1	0	0	0	0	0	0	0.280077	0.103101	0.298451	20.2095	41.023	111.44	118.751	-69.7905	0.0000000E+000	0.0000000E+000	0.0000000E+000	69.7905	0.0000000E+000	0.0000000E+000	0.0000000E+000	-69.7905	0.0000000E+000	0.0000000E+000	0.0000000E+000	-20.2095	0.0000000E+000	0.0000000E+000	0.0000000E+000	20.2095	2.71653	69.7905	7.95138e-06
31751	3.0024	0.434178	3.03363	-8.22854	155.756	0.43988	-0.0546272	11.545	0.236486	1	37	0.00521548	0.00171922	0	-0.000215259	1.23571	0.503971	24.6034	4.41012e-05	1.80266e-05	1.43861e-05	2.19406e-05	2.00116e-05	1.50778e-05	0.486882	0.404593	10.3688	1.80592e-06	3.22858e-06	2.55018e-06	3.00122e-06	4.08995e-06	3.20575e-06	0.326245	0.0471785	0.329638	8.22854	236.486	1635.33	1652.34	-81.7715	0.0000000E+000	0.0000000E+000	0.0000000E+000	81.7715	0.0000000E+000	0.0000000E+000	0.0000000E+000	-81.7715	0.0000000E+000	0.0000000E+000	0.0000000E+000	-8.22854	0.0000000E+000	0.0000000E+000	0.0000000E+000	8.22854	6.91512	81.7715	-1.94092e-05
2519.19	3.51745	3.78543	5.16739	-47.1016	168.825	0.439809	-0.00416171	16.6895	8.95637	1	38	0.00530401	0.00102644	0	-0.000374376	1.2437	0.631744	22.5289	3.68028e-05	2.81196e-05	2.7555e-05	1.64748e-05	2.23083e-05	1.40411e-05	0.300438	0.128516	2.88187	2.555e-06	8.24695e-07	4.36504e-07	1.11969e-06	5.49953e-07	6.27096e-07	0.13173	0.141766	0.193521	47.1016	8956.37	8322.31	12226.1	-42.8984	0.0000000E+000	0.0000000E+000	0.0000000E+000	42.8984	0.0000000E+000	0.0000000E+000	0.0000000E+000	-42.8984	0.0000000E+000	0.0000000E+000	0.0000000E+000	-47.1016	0.0000000E+000	0.0000000E+000	0.0000000E+000	47.1016	0.929206	42.8984	-2.07141e-06
199.936	8.48272	40.0857	40.9734	-78.0516	181.247	0.439799	-0.000122479	19.8582	19.007	1	39	0.00470618	0.000114859	0	-0.000385235	2.62311	1.43231	26.5776	4.51712e-05	4.39761e-05	4.35081e-05	4.1748e-05	4.4117e-05	5.89372e-05	1.06093	0.292031	10.72	7.86573e-07	5.09476e-07	2.97777e-07	6.28383e-07	1.4026e-07	2.61468e-07	0.0050528	0.0238773	0.0244061	78.0516	19007	4022.17	19427.9	-11.9484	0.0000000E+000	0.0000000E+000	0.0000000E+000	11.9484	0.0000000E+000	0.0000000E+000	0.0000000E+000	-11.9484	0.0000000E+000	0.0000000E+000	0.0000000E+000	-78.0516	0.0000000E+000	0.0000000E+000	0.0000000E+000	78.0516	0.211615	11.9484	6.48722e-08
15.879	158.555	374.481	406.664	-67.0523	193.327	0.439767	-9.67014e-06	26.7649	22.6962	1	40	0.0046041	1.13216e-05	0	-0.000385424	2.03033	1.26116	39.1186	3.67998e-05	5.23398e-05	2.3476e-05	2.76279e-05	4.05318e-05	3.73919e-05	1.15086	0.668296	19.0261	3.83992e-08	5.39293e-08	4.0501e-08	7.01855e-08	5.32632e-08	4.06245e-08	0.000958754	0.00226443	0.00245903	67.0523	22696.2	9609.55	24646.8	-22.9477	0.0000000E+000	0.0000000E+000	0.0000000E+000	22.9477	0.0000000E+000	0.0000000E+000	0.0000000E+000	-22.9477	0.0000000E+000	0.0000000E+000	0.0000000E+000	-67.0523	0.0000000E+000	0.0000000E+000	0.0000000E+000	67.0523	0.423398	22.9477	-4.99126e-08
1.25968	1237.9	402.399	1301.66	-18.0076	220.076	0.439786	-0.000105493	313.982	30.007	1	41	0.00459649	3.53126e-06	0	-0.000386092	0.833339	0.330632	13.0617	6.13724e-06	2.56925e-05	9.26302e-06	1.36894e-05	1.75892e-05	1.25953e-05	0.300334	0.133354	4.86595	7.0585e-09	4.33855e-09	2.66437e-09	3.07418e-09	4.25605e-09	1.4236e-09	0.000730618	0.000237499	0.00076825	18.0076	30007	92310.5	97065.2	-71.9924	0.0000000E+000	0.0000000E+000	0.0000000E+000	71.9924	0.0000000E+000	0.0000000E+000	0.0000000E+000	-71.9924	0.0000000E+000	0.0000000E+000	0.0000000E+000	-18.0076	0.0000000E+000	0.0000000E+000	0.0000000E+000	18.0076	3.0763	71.9924	-2.52579e-07
0.0999518	1561.38	223.275	1577.26	-8.13805	496.88	0.43977	-0.000319024	7131.63	142.91	1	41	0.00459608	2.91396e-06	0	-0.000405162	0.25271	0.169895	4.84334	4.5353e-06	5.15335e-06	3.17198e-06	6.50969e-06	3.37396e-06	4.19353e-06	0.208325	0.161153	2.65745	3.46019e-09	3.48534e-09	8.90498e-10	2.7307e-09	8.71546e-10	1.20163e-09	0.000627625	8.97497e-05	0.00063401	8.13805	142910	999379	1.00955e+06	-81.8619	0.0000000E+000	0.0000000E+000	0.0000000E+000	81.8619	0.0000000E+000	0.0000000E+000	0.0000000E+000	-81.8619	0.0000000E+000	0.0000000E+000	0.0000000E+000	-8.13805	0.0000000E+000	0.0000000E+000	0.0000000E+000	8.13805	6.99307	81.8619	-4.93923e-06
39971.8	2.96408	0.37343	2.98751	-7.18058	511.682	0.439853	-0.0230997	10.6625	0.166593	2	37	0.00514219	0.00172123	0	-0.000471104	1.60063	0.665631	24.8473	5.60726e-05	1.1251e-05	2.64966e-05	2.30665e-05	2.26907e-05	2.62899e-05	0.66478	0.224049	10.3395	5.01947e-06	3.35048e-06	3.97362e-06	3.59803e-06	6.03598e-06	4.39343e-06	0.332102	0.0418399	0.334727	7.18058	166.593	1322.32	1332.78	-82.8194	0.0000000E+000	0.0000000E+000	0.0000000E+000	82.8194	0.0000000E+000	0.0000000E+000	0.0000000E+000	-82.8194	0.0000000E+000	0.0000000E+000	0.0000000E+000	-7.18058	0.0000000E+000	0.0000000E+000	0.0000000E+000	7.18058	7.93745	82.8194	-7.12338e-06
3171.96	3.45311	3.18701	4.69904	-42.7051	524.831	0.439724	-0.00246548	15.7438	7.24198	2	38	0.00516201	0.00109852	0	-0.000550544	1.46728	0.49283	24.4013	2.60108e-05	2.27305e-05	3.18845e-05	2.90909e-05	4.11677e-05	1.83337e-05	0.208594	0.133736	2.72416	1.80463e-06	5.99937e-07	5.86576e-07	4.44677e-07	5.77752e-07	6.40679e-07	0.156384	0.144333	0.212809	42.7051	7241.98	7846.66	10677.8	-47.2949	0.0000000E+000	0.0000000E+000	0.0000000E+000	47.2949	0.0000000E+000	0.0000000E+000	0.0000000E+000	-47.2949	0.0000000E+000	0.0000000E+000	0.0000000E+000	-42.7051	0.0000000E+000	0.0000000E+000	0.0000000E+000	42.7051	1.0835	47.2949	-2.43851e-06
251.853	7.17542	33.3955	34.1576	-77.8737	537.471	0.439757	-0.000487595	18.9228	18.0877	2	39	0.00506536	0.000148294	0	-0.000557182	1.14331	0.556327	25.5514	1.57992e-05	1.63463e-05	2.6238e-05	3.06977e-05	1.51272e-05	2.07159e-05	1.04498	0.261098	8.37379	1.13739e-06	5.71844e-07	9.70607e-08	7.51106e-07	2.92632e-07	1.98124e-07	0.00614995	0.0286228	0.029276	77.8737	18087.7	3886.36	18500.5	-12.1263	0.0000000E+000	0.0000000E+000	0.0000000E+000	12.1263	0.0000000E+000	0.0000000E+000	0.0000000E+000	-12.1263	0.0000000E+000	0.0000000E+000	0.0000000E+000	-77.8737	0.0000000E+000	0.0000000E+000	0.0000000E+000	77.8737	0.214862	12.1263	-2.56923e-07
19.9808	118.757	321.361	342.602	-69.7186	549.618	0.439737	-0.000322825	24.7864	21.8082	2	40	0.00486039	1.41867e-05	0	-0.000558683	1.93247	1.33366	37.7444	3.71067e-05	5.23369e-05	2.55585e-05	2.96179e-05	3.0475e-05	3.89197e-05	0.99662	0.553265	15.5494	9.91137e-08	4.17008e-08	2.36403e-08	6.93557e-08	1.32662e-08	3.14905e-08	0.00101176	0.00273788	0.00291884	69.7186	21808.2	8059.08	23249.7	-20.2814	0.0000000E+000	0.0000000E+000	0.0000000E+000	20.2814	0.0000000E+000	0.0000000E+000	0.0000000E+000	-20.2814	0.0000000E+000	0.0000000E+000	0.0000000E+000	-69.7186	0.0000000E+000	0.0000000E+000	0.0000000E+000	69.7186	0.369543	20.2814	-8.39122e-08
1.5871	1202.02	459.774	1286.95	-20.9319	572.203	0.43977	-0.000330374	218.108	27.8378	2	41	0.00490122	3.80839e-06	0	-0.000560641	0.777818	0.567373	13.6477	1.80176e-05	7.34261e-06	7.24112e-06	2.26333e-05	1.78037e-05	9.77327e-06	0.345125	0.125615	4.69767	8.53128e-09	6.36418e-09	1.08825e-09	6.14407e-09	2.27899e-09	2.98999e-09	0.00072575	0.0002776	0.00077703	20.9319	27837.8	72778.5	77920.8	-69.0681	0.0000000E+000	0.0000000E+000	0.0000000E+000	69.0681	0.0000000E+000	0.0000000E+000	0.0000000E+000	-69.0681	0.0000000E+000	0.0000000E+000	0.0000000E+000	-20.9319	0.0000000E+000	0.0000000E+000	0.0000000E+000	20.9319	2.61438	69.0681	-2.14155e-07
0.125939	1555.78	216.209	1570.73	-7.91181	792.81	0.439745	-0.000323268	5845.03	110.747	2	41	0.00490502	3.12276e-06	0	-0.000580087	0.296491	0.129064	3.85912	7.80729e-06	5.54692e-06	4.63496e-06	4.36584e-06	5.588e-06	3.48884e-06	0.213237	0.196335	3.49901	3.97076e-09	4.0998e-09	8.09091e-10	2.83997e-09	1.0587e-09	7.09937e-10	0.000630586	8.76335e-05	0.000636646	7.91181	110747	796903	804561	-82.0882	0.0000000E+000	0.0000000E+000	0.0000000E+000	82.0882	0.0000000E+000	0.0000000E+000	0.0000000E+000	-82.0882	0.0000000E+000	0.0000000E+000	0.0000000E+000	-7.91181	0.0000000E+000	0.0000000E+000	0.0000000E+000	7.91181	7.19572	82.0882	-4.94328e-06
50326.6	2.96791	0.316652	2.98475	-6.08997	867.866	0.439882	-0.0367417	9.98711	0.112406	3	37	0.00514669	0.00172433	0	-0.000701386	1.10387	0.556684	24.4947	3.6568e-05	1.7363e-05	1.65515e-05	2.07792e-05	2.28421e-05	1.16691e-05	0.58462	0.405234	10.279	4.90392e-06	3.94163e-06	3.02611e-06	2.38727e-06	3.50032e-06	3.99652e-06	0.333146	0.035544	0.335036	6.08997	112.406	1053.55	1059.53	-83.91	0.0000000E+000	0.0000000E+000	0.0000000E+000	83.91	0.0000000E+000	0.0000000E+000	0.0000000E+000	-83.91	0.0000000E+000	0.0000000E+000	0.0000000E+000	-6.08997	0.0000000E+000	0.0000000E+000	0.0000000E+000	6.08997	9.37276	83.91	-1.04999e-05
3993.72	3.3816	2.61604	4.27537	-37.7259	880.835	0.43972	-0.0037409	15.2335	5.70345	3	38	0.00544467	0.00127349	0	-0.00081734	1.23963	0.434347	22.6377	1.1979e-05	2.01122e-05	2.41343e-05	4.42967e-05	2.74862e-05	2.31311e-05	0.211009	0.0713686	2.36112	2.21526e-06	4.78592e-07	8.0779e-07	6.08273e-07	6.47402e-07	4.91712e-07	0.185001	0.143118	0.233898	37.7259	5703.45	7372.52	9321.12	-52.2741	0.0000000E+000	0.0000000E+000	0.0000000E+000	52.2741	0.0000000E+000	0.0000000E+000	0.0000000E+000	-52.2741	0.0000000E+000	0.0000000E+000	0.0000000E+000	-37.7259	0.0000000E+000	0.0000000E+000	0.0000000E+000	37.7259	1.29264	52.2741	-4.18314e-06
316.927	6.42	27.2278	27.9745	-76.7327	893.7	0.439741	-0.000144097	18.4437	17.4723	3	39	0.00498415	0.000178168	0	-0.000827044	1.2598	0.551545	25.1945	2.14607e-05	3.04263e-05	2.09069e-05	2.79801e-05	2.20174e-05	1.7427e-05	1.00015	0.187254	7.01206	1.37231e-06	5.41231e-07	2.8855e-07	8.40041e-07	2.0938e-07	2.07509e-07	0.00820373	0.0347928	0.0357469	76.7327	17472.3	4119.76	17951.4	-13.2673	0.0000000E+000	0.0000000E+000	0.0000000E+000	13.2673	0.0000000E+000	0.0000000E+000	0.0000000E+000	-13.2673	0.0000000E+000	0.0000000E+000	0.0000000E+000	-76.7327	0.0000000E+000	0.0000000E+000	0.0000000E+000	76.7327	0.235788	13.2673	-3.47738e-07
25.1691	85.1337	275.159	288.029	-72.808	905.884	0.439771	-0.000330815	22.981	20.9733	3	40	0.0047912	1.66345e-05	0	-0.000828696	2.06627	0.884894	37.6132	2.45371e-05	3.67354e-05	5.3941e-05	3.45153e-05	3.18458e-05	3.78141e-05	1.23696	0.344938	13.0464	1.24754e-07	7.97308e-08	6.4804e-08	1.06219e-07	3.44651e-08	3.97442e-08	0.0010262	0.00331675	0.00347188	72.808	20973.2	6489.08	21954.2	-17.192	0.0000000E+000	0.0000000E+000	0.0000000E+000	17.192	0.0000000E+000	0.0000000E+000	0.0000000E+000	-17.192	0.0000000E+000	0.0000000E+000	0.0000000E+000	-72.808	0.0000000E+000	0.0000000E+000	0.0000000E+000	72.808	0.309398	17.192	-1.26244e-07