File: Python/Data/GoldElectrode/240322/Carbon/240322-CVEIS-PostActivation-5mM_Fe2Fe3-1M_H2SO4-0000RPM-Ag_AgCl_BLF8-GC_RDE_01_CV_C15.mpt
EC-Lab ASCII FILE
Nb header lines : 60

Cyclic Voltammetry

Run on channel : 15 (SN 19485)
User :
Electrode connection : standard
Potential control : Ewe
Ewe ctrl range : min = -1.00 V, max = 1.00 V
Ewe,I filtering : <None>
Safety Limits :
	Do not start on E overload
Channel : Floating
Acquisition started on : 03/22/2024 13:54:23.830
Loaded Setting File :  C:\Data\mathias\GoldElectrode\240322-CVEIS-PostActivation-5mM_Fe2Fe3-1M_H2SO4-0000RPM-Ag_AgCl_BLF8-Au_RDE.mps
Saved on :
	File : 240322-CVEIS-PostActivation-5mM_Fe2Fe3-1M_H2SO4-0000RPM-Ag_AgCl_BLF8-GC_RDE_01_CV_C15.mpr
	Directory : C:\Data\mathias\GoldElectrode\
	Host : 192.168.0.1
Device : VMP-300 (SN 0826)
Address : USB
EC-Lab for windows v11.52 (software)
Internet server v11.52 (firmware)
Command interpretor v11.52 (firmware)
Electrode material :
Initial state :
Electrolyte :
Comments :
Cable : special
Electrode surface area : 0.001 cm²
Characteristic mass : 0.001 g
Equivalent Weight : 0.000 g/eq.
Density : 0.000 g/cm3
Volume (V) : 0.001 cm³
Record EIS quality indicators
Cycle Definition : Charge/Discharge alternance
Ei (V)              0.000
vs.                 Eoc
dE/dt               20.000
dE/dt unit          mV/s
E1 (V)              0.700
vs.                 Ref
Step percent        50
N                   10
E range min (V)     -1.000
E range max (V)     1.000
I Range             Auto
I Range min         Unset
I Range max         Unset
I Range init        Unset
Bandwidth           8
E2 (V)              0.000
vs.                 Ref
nc cycles           1
Reverse Scan        1
Ef (V)              0.000
vs.                 Eoc

mode	ox/red	error	control changes	counter inc.	time/s	control/V	Ewe/V	<I>/mA	cycle number	(Q-Qo)/C	I Range	step time/s	P/W
2	1	0	1	0	0.000000000000000E+000	0.441158	0.44072	0.00097987	1	0.0000000E+000	43	0.000000000000000E+000	4.31849e-07
2	1	0	1	0	1.2232	0.465621	0.465216	0.0168193	1	1.07784e-05	41	1.2094	7.82461e-06
2	1	0	1	0	2.3977	0.48911	0.489039	0.0323845	1	3.9646e-05	41	2.3839	1.58373e-05
2	1	0	1	0	3.5721	0.512598	0.512467	0.0481681	1	8.70406e-05	41	3.5583	2.46846e-05
2	1	0	1	0	4.7466	0.536088	0.535673	0.0622285	1	0.000152193	41	4.7328	3.33341e-05
2	1	0	1	0	5.921	0.559576	0.559196	0.0720868	1	0.000231622	41	5.9072	4.03107e-05
2	1	0	1	0	7.0954	0.583065	0.58269	0.0761979	1	0.000319305	41	7.0816	4.43997e-05
2	1	0	1	0	8.2699	0.606553	0.605961	0.075116	1	0.000408608	41	8.2561	4.55174e-05
2	1	0	1	0	9.4443	0.630042	0.629694	0.0709115	1	0.000494571	41	9.4305	4.46525e-05
2	1	0	1	0	10.6187	0.653531	0.65303	0.0657126	1	0.000574852	41	10.6049	4.29123e-05
2	1	0	1	0	11.7932	0.67702	0.676946	0.0608113	1	0.000649128	41	11.7794	4.1166e-05
2	1	0	0	0	12.9418	0.699984	0.699039	0.0567169	1	0.000716556	41	12.928	3.96474e-05
2	1	0	1	0	14.1049	0.67672	0.676472	0.0477153	1	0.000775972	41	14.0911	3.22781e-05
2	1	0	1	0	15.2794	0.653231	0.652795	0.0426575	1	0.00082893	41	15.2656	2.78466e-05
2	1	0	1	0	16.4538	0.629742	0.629351	0.0381335	1	0.000876323	41	16.44	2.39994e-05
2	1	0	1	0	17.6282	0.606253	0.605894	0.0335411	1	0.000918383	41	17.6144	2.03224e-05
2	1	0	1	0	18.8027	0.582765	0.582428	0.0286261	1	0.000954887	41	18.7889	1.66727e-05
2	1	0	1	0	19.9771	0.559276	0.559218	0.0232675	1	0.000985374	41	19.9633	1.30116e-05
2	1	0	1	0	21.1515	0.535787	0.535314	0.01736	1	0.00100926	41	21.1377	9.29307e-06
2	1	0	1	0	22.326	0.512298	0.512112	0.0107672	1	0.00102582	41	22.3122	5.51402e-06
2	1	0	1	0	23.5304	0.48821	0.488018	0.0030259	1	0.00103422	42	23.5166	1.47669e-06
2	0	0	1	0	24.7048	0.464721	0.464632	-0.00578623	1	0.00103274	42	0.7246	-2.68847e-06
2	0	0	1	0	25.9093	0.440633	0.44034	-0.0167247	1	0.00101938	41	1.9291	-7.36454e-06
2	0	0	1	0	27.0837	0.417144	0.416689	-0.0298872	1	0.000992239	41	3.1035	-1.24537e-05
2	0	0	1	0	28.2581	0.393655	0.393559	-0.0459471	1	0.000947949	41	4.2779	-1.80829e-05
2	0	0	1	0	29.4326	0.370167	0.370014	-0.0645905	1	0.000883211	41	5.4524	-2.38994e-05
2	0	0	1	0	30.607	0.346678	0.346358	-0.0843099	1	0.000795738	41	6.6268	-2.92014e-05
2	0	0	1	0	31.7814	0.323191	0.323014	-0.102263	1	0.000685813	41	7.8012	-3.30323e-05
2	0	0	1	0	32.9859	0.299101	0.298648	-0.114204	1	0.000554141	40	9.0057	-3.41066e-05
2	0	0	1	0	34.1603	0.275612	0.275421	-0.119037	1	0.000415266	40	10.1801	-3.27853e-05
2	0	0	1	0	35.3348	0.252122	0.251753	-0.116916	1	0.00027498	40	11.3546	-2.94339e-05
2	0	0	1	0	36.5092	0.228634	0.228365	-0.109848	1	0.000140255	40	12.529	-2.50854e-05
2	0	0	1	0	37.6836	0.205146	0.204847	-0.101451	1	1.46348e-05	40	13.7034	-2.0782e-05
2	0	0	1	0	38.8581	0.181657	0.181473	-0.0930127	1	-0.000101116	40	14.8779	-1.68793e-05
2	0	0	1	0	40.0325	0.158168	0.15811	-0.0857109	1	-0.000207695	40	16.0523	-1.35517e-05
2	0	0	1	0	41.2069	0.134679	0.134391	-0.0795731	1	-0.000306352	40	17.2267	-1.06939e-05
2	0	0	1	0	42.3814	0.111191	0.110971	-0.0741319	1	-0.00039834	40	18.4012	-8.22653e-06
2	0	0	1	0	43.5558	0.0877019	0.0874011	-0.069519	1	-0.000484723	40	19.5756	-6.07604e-06
2	0	0	1	0	44.7302	0.0642145	0.0640156	-0.0659071	1	-0.000566437	40	20.75	-4.21909e-06
2	0	0	1	0	45.9047	0.0407244	0.0404443	-0.0628448	1	-0.000644235	40	21.9245	-2.54171e-06
2	0	0	1	0	47.0791	0.0172357	0.017101	-0.0602225	1	-0.000718748	40	23.0989	-1.02987e-06
2	0	0	1	1	48.229	0.00579295	0.00528033	-0.0602137	1	-0.000788572	40	24.2488	-3.17948e-07
2	0	0	1	1	49.4034	0.0292799	0.0290004	-0.0576267	1	-0.000855236	40	25.4232	-1.6712e-06
2	0	0	1	1	50.5778	0.0527687	0.0525954	-0.0553285	1	-0.000919079	40	26.5976	-2.91002e-06
2	0	0	1	1	51.7523	0.0762574	0.0758622	-0.0534849	1	-0.000980558	40	27.7721	-4.05748e-06
2	0	0	1	1	52.9267	0.0997461	0.0995899	-0.0516504	1	-0.00103986	40	28.9465	-5.14386e-06
2	0	0	1	1	54.1011	0.123235	0.122764	-0.0495878	1	-0.00109706	40	30.1209	-6.08759e-06
2	0	0	1	1	55.2756	0.146724	0.146342	-0.047582	1	-0.00115214	40	31.2954	-6.96324e-06
2	0	0	1	1	56.48	0.170812	0.170786	-0.0439363	1	-0.00120629	41	32.4998	-7.5037e-06
2	0	0	1	1	57.6544	0.194301	0.193965	-0.0416732	1	-0.00125659	41	33.6742	-8.08313e-06
2	0	0	1	1	58.8289	0.21779	0.217468	-0.0390794	1	-0.00130404	41	34.8487	-8.49851e-06
2	0	0	1	1	60.0033	0.241278	0.240757	-0.0359754	1	-0.00134814	41	36.0231	-8.66131e-06
2	0	0	1	1	61.1778	0.264769	0.264476	-0.0323056	1	-0.00138829	41	37.1976	-8.54403e-06
2	0	0	1	1	62.3522	0.288256	0.287968	-0.0280305	1	-0.00142376	41	38.372	-8.07188e-06
2	0	0	1	1	63.5266	0.311745	0.311482	-0.0230826	1	-0.00145381	41	39.5464	-7.1898e-06
2	0	0	1	1	64.7011	0.335233	0.335042	-0.0175152	1	-0.00147769	41	40.7209	-5.86832e-06
2	0	0	1	1	65.8755	0.358722	0.358618	-0.0111803	1	-0.0014946	41	41.8953	-4.00947e-06
2	0	0	1	1	67.0799	0.382811	0.382455	-0.0038436	1	-0.00150366	42	43.0997	-1.47001e-06
2	1	0	1	1	68.2544	0.406299	0.405945	0.00525313	1	-0.00150291	42	0.6248	2.13248e-06
2	1	0	1	1	69.4588	0.430388	0.429949	0.01678	1	-0.00148992	41	1.8292	7.21454e-06
2	1	0	1	1	70.6057	0.453327	0.453108	0.0307499	2	-0.00146294	41	2.9761	1.3933e-05
2	1	0	1	1	71.7802	0.476815	0.476613	0.0483062	2	-0.00141678	41	4.1506	2.30234e-05
2	1	0	1	1	72.9546	0.500304	0.500103	0.0681716	2	-0.00134847	41	5.325	3.40928e-05
2	1	0	1	1	74.129	0.523793	0.523632	0.0874668	2	-0.00125682	41	6.4994	4.58004e-05
2	1	0	1	1	75.3035	0.547282	0.546993	0.102265	2	-0.00114473	41	7.6739	5.59384e-05
2	1	0	1	1	76.4779	0.57077	0.570533	0.109358	2	-0.00101961	41	8.8483	6.23922e-05
2	1	0	1	1	77.6823	0.594859	0.594638	0.107527	2	-0.000887852	40	10.0527	6.39398e-05
2	1	0	1	1	78.8568	0.618348	0.617897	0.100593	2	-0.000764609	40	11.2272	6.21563e-05
2	1	0	1	1	80.0312	0.641836	0.641551	0.0913558	2	-0.000651277	40	12.4016	5.86095e-05
2	1	0	1	1	81.2056	0.665323	0.66504	0.0822246	2	-0.000549014	40	13.576	5.46826e-05
2	1	0	1	1	82.3801	0.688814	0.68858	0.0742911	2	-0.000456888	40	14.7505	5.11554e-05
2	1	0	1	1	83.5274	0.688214	0.687783	0.0635688	2	-0.000377128	40	15.8978	4.37215e-05
2	1	0	1	1	84.7018	0.664725	0.664388	0.0551372	2	-0.000308088	40	17.0722	3.66324e-05
2	1	0	1	1	85.8763	0.641237	0.641	0.0483961	2	-0.000247726	40	18.2467	3.10219e-05
2	1	0	1	1	87.0807	0.617148	0.616975	0.041831	2	-0.000193614	41	19.4511	2.58087e-05
2	1	0	1	1	88.2551	0.593659	0.593248	0.035724	2	-0.000148099	41	20.6255	2.11932e-05
2	1	0	1	1	89.4296	0.570171	0.570078	0.0294783	2	-0.000109797	41	21.8	1.68049e-05
2	1	0	1	1	90.604	0.546682	0.546252	0.02292	2	-7.90072e-05	41	22.9744	1.25201e-05
2	1	0	1	1	91.7784	0.523193	0.522924	0.0159494	2	-5.61509e-05	41	24.1488	8.34032e-06
2	1	0	1	1	92.9529	0.499705	0.499378	0.00833434	2	-4.18436e-05	41	25.3233	4.16198e-06
2	0	0	1	1	94.1573	0.475616	0.475296	-0.000455576	2	-3.69971e-05	42	0.025	-2.16533e-07
2	0	0	1	1	95.3317	0.452127	0.452078	-0.010469	2	-4.32527e-05	42	1.1994	-4.73281e-06
2	0	0	1	1	96.5362	0.428039	0.427902	-0.0228036	2	-6.30618e-05	41	2.4039	-9.75772e-06
2	0	0	1	1	97.7106	0.40455	0.4045	-0.0374662	2	-9.82125e-05	41	3.5783	-1.51551e-05
2	0	0	1	1	98.885	0.381061	0.380379	-0.0547583	2	-0.000152157	41	4.7527	-2.08289e-05
2	0	0	1	1	100.059	0.357573	0.357113	-0.073878	2	-0.000227645	41	5.9272	-2.63828e-05
2	0	0	1	1	101.234	0.334084	0.333743	-0.0926229	2	-0.000325646	41	7.1016	-3.09122e-05
2	0	0	1	1	102.408	0.310594	0.310369	-0.107763	2	-0.000443877	41	8.2761	-3.34464e-05
2	0	0	1	1	103.613	0.286507	0.286334	-0.115463	2	-0.000579681	40	9.4805	-3.30611e-05
2	0	0	1	1	104.787	0.263018	0.262529	-0.116191	2	-0.00071761	40	10.6549	-3.05035e-05
2	0	0	1	1	105.962	0.23953	0.239379	-0.111404	2	-0.000853039	40	11.8293	-2.66677e-05
2	0	0	1	1	107.136	0.21604	0.2156	-0.103607	2	-0.000980954	40	13.0038	-2.23377e-05
2	0	0	1	1	108.31	0.192552	0.192353	-0.0954642	2	-0.00109945	40	14.1782	-1.83628e-05
2	0	0	1	1	109.485	0.169063	0.168856	-0.0878128	2	-0.00120869	40	15.3527	-1.48278e-05
2	0	0	1	1	110.659	0.145574	0.145262	-0.0812999	2	-0.0013097	40	16.5271	-1.18098e-05
2	0	0	1	1	111.834	0.122085	0.122011	-0.0756589	2	-0.00140365	40	17.7015	-9.23124e-06
2	0	0	1	1	113.008	0.0985967	0.0983775	-0.0709875	2	-0.00149169	40	18.876	-6.98357e-06
2	0	0	1	1	114.183	0.075108	0.0748582	-0.0668131	2	-0.00157478	40	20.0504	-5.00151e-06
2	0	0	1	1	115.357	0.0516183	0.0514628	-0.063526	2	-0.00165371	40	21.2249	-3.26922e-06
2	0	0	1	1	116.532	0.0281305	0.0278193	-0.060831	2	-0.00172914	40	22.3993	-1.69227e-06
2	0	0	1	1	117.706	0.00464172	0.00438267	-0.0585459	2	-0.0018016	40	23.5737	-2.56587e-07
2	0	0	1	0	118.851	0.0182847	0.0181363	-0.0584598	2	-0.00186809	40	24.7185	-1.06024e-06
2	0	0	1	0	120.025	0.0417739	0.0415298	-0.0560193	2	-0.00193278	40	25.893	-2.32647e-06
2	0	0	1	0	121.2	0.0652627	0.0648886	-0.0539071	2	-0.00199498	40	27.0674	-3.49796e-06
2	0	0	1	0	122.374	0.0887514	0.0885638	-0.0520057	2	-0.00205492	40	28.2419	-4.60582e-06
2	0	0	1	0	123.549	0.11224	0.111995	-0.0501592	2	-0.00211275	40	29.4163	-5.61758e-06
2	0	0	1	0	124.723	0.135729	0.13559	-0.0483176	2	-0.00216847	40	30.5907	-6.55137e-06
2	0	0	1	0	125.927	0.159817	0.159662	-0.0445836	2	-0.00222337	41	31.7952	-7.11831e-06
2	0	0	1	0	127.102	0.183306	0.183154	-0.0424875	2	-0.00227452	41	32.9696	-7.78175e-06
2	0	0	1	0	128.276	0.206795	0.206783	-0.0400838	2	-0.00232302	41	34.144	-8.28864e-06
2	0	0	1	0	129.451	0.230284	0.230112	-0.0372679	2	-0.00236844	41	35.3185	-8.57581e-06
2	0	0	1	0	130.625	0.253772	0.253448	-0.0338705	2	-0.00241022	41	36.4929	-8.58441e-06
2	0	0	1	0	131.8	0.277261	0.276963	-0.0298669	2	-0.00244769	41	37.6673	-8.27202e-06
2	0	0	1	0	132.974	0.30075	0.300502	-0.0252859	2	-0.00248012	41	38.8418	-7.59847e-06
2	0	0	1	0	134.148	0.324239	0.32402	-0.0200606	2	-0.00250677	41	40.0162	-6.50004e-06
2	0	0	1	0	135.323	0.347727	0.347284	-0.0141208	2	-0.00252687	41	41.1907	-4.90392e-06
2	0	0	1	0	136.497	0.371216	0.370968	-0.00732589	2	-0.00253955	41	42.3651	-2.71767e-06
2	1	0	1	0	137.702	0.395305	0.395191	0.000946766	2	-0.00254356	42	0.0999	3.74153e-07
2	1	0	1	0	138.891	0.419093	0.418731	0.0104449	2	-0.00253661	42	1.2893	4.37362e-06
2	1	0	1	0	139.936	0.440008	0.439739	0.0224645	2	-0.00251932	41	2.3337	9.87853e-06