File: Python/Data/GoldElectrode/240322/Carbon/240322-CVEIS-Activation-5mM_Fe2Fe3-1M_H2SO4-0000RPM-Ag_AgCl_BLF8-GC_RDE_01_CV_C15.mpt
EC-Lab ASCII FILE
Nb header lines : 60

Cyclic Voltammetry

Run on channel : 15 (SN 19485)
User :
Electrode connection : standard
Potential control : Ewe
Ewe ctrl range : min = -2.50 V, max = 2.50 V
Ewe,I filtering : 50 kHz
Safety Limits :
	Do not start on E overload
Channel : Floating
Acquisition started on : 03/22/2024 12:39:19.547
Loaded Setting File :  C:\Data\mathias\GoldElectrode\240322-CVEIS-Activation-5mM_Fe2Fe3-1M_H2SO4-0000RPM-Ag_AgCl_BLF8-Au_RDE.mps
Saved on :
	File : 240322-CVEIS-Activation-5mM_Fe2Fe3-1M_H2SO4-0000RPM-Ag_AgCl_BLF8-GC_RDE_01_CV_C15.mpr
	Directory : C:\Data\mathias\GoldElectrode\
	Host : 192.168.0.1
Device : VMP-300 (SN 0826)
Address : USB
EC-Lab for windows v11.52 (software)
Internet server v11.52 (firmware)
Command interpretor v11.52 (firmware)
Electrode material :
Initial state :
Electrolyte :
Comments :
Cable : special
Electrode surface area : 0.001 cm²
Characteristic mass : 0.001 g
Equivalent Weight : 0.000 g/eq.
Density : 0.000 g/cm3
Volume (V) : 0.001 cm³
Record EIS quality indicators
Cycle Definition : Charge/Discharge alternance
Ei (V)              0.000
vs.                 Eoc
dE/dt               200.000
dE/dt unit          mV/s
E1 (V)              1.500
vs.                 Ref
Step percent        50
N                   10
E range min (V)     -2.500
E range max (V)     2.500
I Range             Auto
I Range min         Unset
I Range max         Unset
I Range init        Unset
Bandwidth           8
E2 (V)              -0.300
vs.                 Ref
nc cycles           0
Reverse Scan        1
Ef (V)              0.000
vs.                 Eoc

mode	ox/red	error	control changes	counter inc.	time/s	control/V	Ewe/V	<I>/mA	cycle number	(Q-Qo)/C	I Range	step time/s	P/W
2	1	0	0	0	0.000000000000000E+000	0.441742	0.44084	7.71242e-05	1	0.0000000E+000	44	0.000000000000000E+000	3.39994e-08
2	1	0	1	0	0.1752	0.476774	0.476535	0.00541462	1	6.04171e-07	42	0.1563	2.58026e-06
2	1	0	1	0	0.3201	0.505759	0.505463	0.00888622	1	1.62637e-06	42	0.3012	4.49166e-06
2	1	0	1	0	0.495	0.540741	0.540488	0.0156989	1	3.70336e-06	41	0.4761	8.48504e-06
2	1	0	1	0	0.6399	0.569727	0.569461	0.0254282	1	6.63046e-06	41	0.621	1.44804e-05
2	1	0	1	0	0.7848	0.598694	0.598431	0.0405121	1	1.13383e-05	41	0.7659	2.42437e-05
2	1	0	1	0	0.9298	0.627697	0.627416	0.0615336	1	1.86686e-05	41	0.9109	3.86072e-05
2	1	0	1	0	1.0747	0.656682	0.656403	0.0878988	1	2.94393e-05	41	1.0558	5.76971e-05
2	1	0	1	0	1.2501	0.691765	0.691513	0.125495	1	4.79847e-05	40	1.2312	8.67816e-05
2	1	0	1	0	1.395	0.72075	0.720485	0.158808	1	6.85848e-05	40	1.3761	0.000114419
2	1	0	1	0	1.54	0.749735	0.749463	0.188734	1	9.38722e-05	40	1.5211	0.000141449
2	1	0	1	0	1.6849	0.778721	0.778449	0.20791	1	0.000122789	40	1.666	0.000161847
2	1	0	1	0	1.8298	0.807706	0.807457	0.212119	1	0.000153398	40	1.8109	0.000171277
2	1	0	1	0	1.9747	0.836691	0.836442	0.204337	1	0.000183673	40	1.9558	0.000170916
2	1	0	1	0	2.1197	0.865677	0.865408	0.190716	1	0.000212343	40	2.1008	0.000165047
2	1	0	1	0	2.2646	0.894662	0.894399	0.176323	1	0.000238925	40	2.2457	0.000157703
2	1	0	1	0	2.4095	0.923647	0.923372	0.163286	1	0.000263503	40	2.3906	0.000150774
2	1	0	1	0	2.5545	0.952632	0.952356	0.152244	1	0.000286355	40	2.5356	0.00014499
2	1	0	1	0	2.6994	0.981618	0.981344	0.143396	1	0.000307753	40	2.6805	0.000140721
2	1	0	1	0	2.8443	1.0106	1.01033	0.136212	1	0.00032799	40	2.8254	0.00013762
2	1	0	1	0	2.9892	1.03959	1.03933	0.130528	1	0.000347294	40	2.9703	0.000135662
2	1	0	1	0	3.1342	1.06857	1.06831	0.12598	1	0.000365874	40	3.1153	0.000134586
2	1	0	1	0	3.2791	1.09756	1.0973	0.12253	1	0.000383867	40	3.2602	0.000134452
2	1	0	1	0	3.424	1.12654	1.1263	0.120147	1	0.000401436	40	3.4051	0.000135321
2	1	0	1	0	3.5689	1.15553	1.15529	0.118292	1	0.000418707	40	3.55	0.000136663
2	1	0	1	0	3.7139	1.18451	1.18427	0.116818	1	0.000435752	40	3.695	0.000138344
2	1	0	1	0	3.8588	1.2135	1.21325	0.115892	1	0.000452609	40	3.8399	0.000140606
2	1	0	1	0	4.0037	1.24249	1.24223	0.115695	1	0.000469376	40	3.9848	0.000143721
2	1	0	1	0	4.1486	1.27147	1.27122	0.116285	1	0.000486176	40	4.1297	0.000147824
2	1	0	1	0	4.2936	1.30046	1.3002	0.117184	1	0.000503099	40	4.2747	0.000152362
2	1	0	1	0	4.4385	1.32944	1.32919	0.119005	1	0.000520207	40	4.4196	0.00015818
2	1	0	1	0	4.5834	1.35843	1.35818	0.120911	1	0.000537595	40	4.5645	0.000164219
2	1	0	1	0	4.7284	1.38741	1.38715	0.123442	1	0.000555292	40	4.7095	0.000171232
2	1	0	1	0	4.8733	1.4164	1.41614	0.125631	1	0.000573346	40	4.8544	0.00017791
2	1	0	1	0	5.0182	1.44538	1.44514	0.12947	1	0.000591799	40	4.9993	0.000187103
2	1	0	1	0	5.1631	1.47437	1.47412	0.13607	1	0.000611006	40	5.1442	0.000200583
2	1	0	1	0	5.2991	1.49846	1.49813	0.133646	1	0.000629977	40	5.2802	0.000200219
2	1	0	1	0	5.4441	1.46947	1.46917	0.0948446	1	0.000645932	40	5.4252	0.000139343
2	1	0	1	0	5.589	1.44049	1.44018	0.0808863	1	0.000658534	40	5.5701	0.000116491
2	1	0	1	0	5.7339	1.4115	1.41119	0.0735168	1	0.000669669	40	5.715	0.000103746
2	1	0	1	0	5.8788	1.38251	1.3822	0.0690271	1	0.000679975	40	5.8599	9.54091e-05
2	1	0	1	0	6.0238	1.35353	1.35321	0.0659791	1	0.000689752	40	6.0049	8.92837e-05
2	1	0	1	0	6.1687	1.32454	1.32423	0.0636698	1	0.000699136	40	6.1498	8.43132e-05
2	1	0	1	0	6.3136	1.29556	1.29526	0.0617901	1	0.000708221	40	6.2947	8.00341e-05
2	1	0	1	0	6.4585	1.26657	1.26629	0.0602763	1	0.000717063	40	6.4396	7.63272e-05
2	1	0	1	0	6.6035	1.23759	1.23729	0.0589475	1	0.000725703	40	6.5846	7.29349e-05
2	1	0	1	0	6.7484	1.2086	1.20829	0.0577353	1	0.000734154	40	6.7295	6.97609e-05
2	1	0	1	0	6.8933	1.17962	1.1793	0.0566386	1	0.000742441	40	6.8744	6.67939e-05
2	1	0	1	0	7.0382	1.15063	1.15033	0.0556353	1	0.000750577	40	7.0193	6.39991e-05
2	1	0	1	0	7.1832	1.12165	1.12133	0.0546929	1	0.000758579	40	7.1643	6.13285e-05
2	1	0	1	0	7.3281	1.09266	1.09235	0.053805	1	0.00076644	40	7.3092	5.87739e-05
2	1	0	1	0	7.473	1.06368	1.06337	0.0528618	1	0.000774171	40	7.4541	5.62118e-05
2	1	0	1	0	7.618	1.03469	1.03438	0.0519831	1	0.000781775	40	7.5991	5.37703e-05
2	1	0	1	0	7.7629	1.00571	1.00538	0.051025	1	0.000789238	40	7.744	5.12997e-05
2	1	0	1	0	7.9078	0.97672	0.976413	0.0499755	1	0.000796553	40	7.8889	4.87968e-05
2	1	0	1	0	8.0527	0.947735	0.947432	0.0487203	1	0.000803703	40	8.0338	4.61591e-05
2	1	0	1	0	8.1977	0.91875	0.91846	0.0472484	1	0.000810663	40	8.1788	4.33958e-05
2	1	0	1	0	8.3426	0.889764	0.889445	0.0455099	1	0.000817386	40	8.3237	4.04786e-05
2	1	0	1	0	8.5175	0.854782	0.854472	0.0428239	1	0.000825129	41	8.4986	3.65918e-05
2	1	0	1	0	8.6624	0.825797	0.825466	0.040015	1	0.000831137	41	8.6435	3.3031e-05
2	1	0	1	0	8.8074	0.796807	0.796506	0.0365015	1	0.000836694	41	8.7885	2.90736e-05
2	1	0	1	0	8.9523	0.767826	0.767499	0.0322714	1	0.000841685	41	8.9334	2.47683e-05
2	1	0	1	0	9.0972	0.738841	0.738512	0.0274146	1	0.000846012	41	9.0783	2.0246e-05
2	1	0	1	0	9.2421	0.709856	0.709548	0.022231	1	0.000849609	41	9.2232	1.5774e-05
2	1	0	1	0	9.3871	0.68087	0.680566	0.0169132	1	0.000852444	41	9.3682	1.15105e-05
2	1	0	1	0	9.532	0.651885	0.651599	0.0115847	1	0.000854504	41	9.5131	7.54855e-06
2	1	0	1	0	9.6769	0.6229	0.622607	0.00654956	1	0.000855813	41	9.658	4.0778e-06
2	1	0	1	0	9.8518	0.587917	0.587605	0.00115637	1	0.000856492	42	9.8329	6.79489e-07
2	0	0	1	0	9.9967	0.558932	0.558653	-0.00276464	1	0.000856372	42	0.0999	-1.54447e-06
2	0	0	1	0	10.1417	0.529947	0.529683	-0.00559767	1	0.000855759	42	0.2449	-2.96499e-06
2	0	0	1	0	10.2866	0.500961	0.500678	-0.00795693	1	0.000854775	42	0.3898	-3.98386e-06
2	0	0	1	0	10.4315	0.471976	0.471691	-0.0104536	1	0.000853444	42	0.5347	-4.93088e-06
2	0	0	1	0	10.6064	0.436994	0.436686	-0.0141353	1	0.000851326	41	0.7096	-6.17268e-06
2	0	0	1	0	10.7514	0.408009	0.407693	-0.0184014	1	0.000848989	41	0.8546	-7.50212e-06
2	0	0	1	0	10.8963	0.379023	0.378716	-0.0243765	1	0.000845917	41	0.9995	-9.23176e-06
2	0	0	1	0	11.0412	0.350038	0.349753	-0.0332185	1	0.000841786	41	1.1444	-1.16183e-05
2	0	0	1	0	11.1861	0.321053	0.320759	-0.0465463	1	0.000836071	41	1.2893	-1.49301e-05
2	0	0	1	0	11.3311	0.292067	0.291774	-0.0664763	1	0.000827968	41	1.4343	-1.9396e-05
2	0	0	1	0	11.476	0.263082	0.262795	-0.0953937	1	0.00081636	41	1.5792	-2.5069e-05
2	0	0	1	0	11.6509	0.2281	0.227793	-0.144915	1	0.000795703	40	1.7541	-3.30106e-05
2	0	0	1	0	11.7958	0.199115	0.198792	-0.198007	1	0.000770966	40	1.899	-3.93623e-05
2	0	0	1	0	11.9408	0.170129	0.169826	-0.257497	1	0.000737969	40	2.044	-4.37297e-05
2	0	0	1	0	12.0857	0.141144	0.140824	-0.315416	1	0.000696363	40	2.1889	-4.44182e-05
2	0	0	1	0	12.2306	0.112159	0.111835	-0.361024	1	0.000647141	40	2.3338	-4.0375e-05
2	0	0	1	0	12.3755	0.0831733	0.0828563	-0.386225	1	0.00059273	40	2.4787	-3.20012e-05
2	0	0	1	0	12.5205	0.054188	0.0538681	-0.389137	1	0.000536272	40	2.6237	-2.09621e-05
2	0	0	1	0	12.6654	0.0252027	0.0248845	-0.374711	1	0.000480771	40	2.7686	-9.32449e-06
2	0	0	1	0	12.8103	-0.00378259	-0.0041069	-0.350917	1	0.000428131	40	2.9135	1.44118e-06
2	0	0	1	0	12.9552	-0.0327679	-0.03309	-0.324569	1	0.000379202	40	3.0584	1.074e-05
2	0	0	1	0	13.1002	-0.0617532	-0.0620809	-0.299246	1	0.000334017	40	3.2034	1.85774e-05
2	0	0	1	0	13.2451	-0.0907385	-0.091048	-0.27697	1	0.000292315	40	3.3483	2.52176e-05
2	0	0	1	0	13.39	-0.119724	-0.120069	-0.257841	1	0.000253609	40	3.4932	3.09587e-05
2	0	0	1	0	13.535	-0.148709	-0.149031	-0.241669	1	0.000217431	40	3.6382	3.60161e-05
2	0	0	1	0	13.6799	-0.177694	-0.178023	-0.228038	1	0.000183432	40	3.7831	4.0596e-05
2	0	0	1	0	13.8248	-0.20668	-0.207037	-0.216453	1	0.000151256	40	3.928	4.48137e-05
2	0	0	1	0	13.9697	-0.235665	-0.236006	-0.206647	1	0.000120624	40	4.0729	4.87699e-05
2	0	0	1	0	14.1147	-0.26465	-0.264987	-0.19826	1	9.12834e-05	40	4.2179	5.25363e-05
2	0	0	1	0	14.2596	-0.293636	-0.293967	-0.191068	1	6.30892e-05	40	4.3628	5.61675e-05
2	0	0	1	1	14.3995	-0.278443	-0.278724	-0.170847	1	3.79575e-05	40	4.5027	4.76191e-05
2	0	0	1	1	14.5444	-0.249458	-0.249737	-0.160534	1	1.39947e-05	40	4.6476	4.00912e-05
2	0	0	1	1	14.6893	-0.220473	-0.220756	-0.15258	1	-8.67261e-06	40	4.7925	3.36829e-05
2	0	0	1	1	14.8343	-0.191488	-0.191764	-0.145534	1	-3.02734e-05	40	4.9375	2.79082e-05
2	0	0	1	1	14.9792	-0.162502	-0.162771	-0.139003	1	-5.08837e-05	40	5.0824	2.26255e-05
2	0	0	1	1	15.1241	-0.133517	-0.133772	-0.132752	1	-7.05723e-05	40	5.2273	1.77585e-05
2	0	0	1	1	15.269	-0.104532	-0.104795	-0.126544	1	-8.9359e-05	40	5.3722	1.32612e-05
2	0	0	1	1	15.414	-0.0755462	-0.0758054	-0.120085	1	-0.000107242	40	5.5172	9.10309e-06
2	0	0	1	1	15.5589	-0.0465609	-0.0468249	-0.113164	1	-0.000124145	40	5.6621	5.2989e-06
2	0	0	1	1	15.7038	-0.0175756	-0.0178459	-0.105593	1	-0.000140003	40	5.807	1.88441e-06
2	0	0	1	1	15.8487	0.0114097	0.0111446	-0.0971438	1	-0.000154703	40	5.9519	-1.08263e-06
2	0	0	1	1	15.9937	0.040395	0.0401394	-0.0878218	1	-0.000168125	40	6.0969	-3.52512e-06
2	0	0	1	1	16.1386	0.0693803	0.0691187	-0.0775323	1	-0.000180113	40	6.2418	-5.35893e-06
2	0	0	1	1	16.2835	0.0983656	0.0981037	-0.0664044	1	-0.000190548	40	6.3867	-6.51452e-06
2	0	0	1	1	16.4284	0.127351	0.127095	-0.0548634	1	-0.00019934	40	6.5316	-6.97284e-06
2	0	0	1	1	16.5884	0.159335	0.159155	-0.0413089	1	-0.000207118	40	6.6916	-6.57453e-06
2	0	0	1	1	16.7483	0.191318	0.191063	-0.030444	1	-0.000212952	41	6.8515	-5.81672e-06
2	0	0	1	1	16.8932	0.220304	0.220045	-0.0209358	1	-0.000216657	41	6.9964	-4.60681e-06
2	0	0	1	1	17.0381	0.249289	0.249036	-0.0129538	1	-0.000219093	41	7.1413	-3.22596e-06
2	0	0	1	1	17.1831	0.278274	0.27801	-0.00647116	1	-0.000220481	41	7.2863	-1.79905e-06
2	0	0	1	1	17.358	0.313257	0.313001	-0.000286911	1	-0.000221083	42	7.4612	-8.98034e-08
2	1	0	1	1	17.5029	0.342242	0.341942	0.0031356	1	-0.000220883	42	0.1249	1.07219e-06
2	1	0	1	1	17.6478	0.371227	0.370961	0.00628474	1	-0.000220203	42	0.2698	2.33139e-06
2	1	0	1	1	17.7928	0.400213	0.399912	0.00897028	1	-0.000219103	42	0.4148	3.58732e-06
2	1	0	1	1	17.9677	0.435195	0.434928	0.0125323	1	-0.000217246	41	0.5897	5.45065e-06
2	1	0	0	1	17.9984	0.441342	0.441073	0.0136006	1	-0.00021685	41	0.6204	5.99885e-06