File: Python/Data/GoldElectrode/240322/Carbon/240322-CVEIS-Activation-5mM_Fe2Fe3-1M_H2SO4-0000RPM-Ag_AgCl_BLF8-GC_RDE_06_PEIS_C15.mpt
EC-Lab ASCII FILE
Nb header lines : 66

Potentio Electrochemical Impedance Spectroscopy

Run on channel : 15 (SN 19485)
User :
Electrode connection : standard
Potential control : Ewe
Ewe ctrl range : min = -2.50 V, max = 2.50 V
Ewe,I filtering : 50 kHz
Safety Limits :
	Do not start on E overload
Channel : Floating
Acquisition started on : 03/22/2024 12:39:19.547
Loaded Setting File :  C:\Data\mathias\GoldElectrode\240322-CVEIS-Activation-5mM_Fe2Fe3-1M_H2SO4-0000RPM-Ag_AgCl_BLF8-Au_RDE.mps
Saved on :
	File : 240322-CVEIS-Activation-5mM_Fe2Fe3-1M_H2SO4-0000RPM-Ag_AgCl_BLF8-GC_RDE_06_PEIS_C15.mpr
	Directory : C:\Data\mathias\GoldElectrode\
	Host : 192.168.0.1
Device : VMP-300 (SN 0826)
Address : USB
EC-Lab for windows v11.52 (software)
Internet server v11.52 (firmware)
Command interpretor v11.52 (firmware)
Electrode material :
Initial state :
Electrolyte :
Comments :
Cable : special
Electrode surface area : 0.001 cm²
Characteristic mass : 0.001 g
Equivalent Weight : 0.000 g/eq.
Density : 0.000 g/cm3
Volume (V) : 0.001 cm³
Record EIS quality indicators
Cycle Definition : Charge/Discharge alternance
Mode                Single sine
E (V)               0.0000
vs.                 Eoc
tE (h:m:s)          0:00:0.0000
record              0
dI                  0.000
unit dI             mA
dt (s)              0.000
fi                  100.000
unit fi             kHz
ff                  100.000
unit ff             Hz
Nd                  10
Points              per decade
spacing             Logarithmic
Va (mV)             5.0
pw                  0.10
Na                  2
corr                0
E range min (V)     -2.500
E range max (V)     2.500
I Range             Auto
Bandwidth           8
nc cycles           0
goto Ns'            0
nr cycles           0
inc. cycle          0

freq/Hz	Re(Z)/Ohm	-Im(Z)/Ohm	|Z|/Ohm	Phase(Z)/deg	time/s	<Ewe>/V	<I>/mA	Cs/µF	Cp/µF	cycle number	I Range	|Ewe|/V	|I|/A	Ns	(Q-Qo)/mA.h	THD Ewe/%	NSD Ewe/%	NSR Ewe/%	|Ewe h2|/V	|Ewe h3|/V	|Ewe h4|/V	|Ewe h5|/V	|Ewe h6|/V	|Ewe h7|/V	THD I/%	NSD I/%	NSR I/%	|I h2|/A	|I h3|/A	|I h4|/A	|I h5|/A	|I h6|/A	|I h7|/A	Re(Y)/Ohm-1	Im(Y)/Ohm-1	|Y|/Ohm-1	Phase(Y)/deg	Re(C)/nF	Im(C)/nF	|C|/nF	Phase(C)/deg	Re(M)	Im(M)	|M|	Phase(M)/deg	Re(Permittivity)	Im(Permittivity)	|Permittivity|	Phase(Permittivity)/deg	Re(Resistivity)/Ohm.cm	Im(Resistivity)/Ohm.cm	|Resistivity|/Ohm.cm	Phase(Resistivity)/deg	Re(Conductivity)/mS/cm	Im(Conductivity)/mS/cm	|Conductivity|/mS/cm	Phase(Conductivity)/deg	Tan(Delta)	Loss Angle(Delta)/deg	dq/mA.h
100004	2.95867	0.185635	2.96449	-3.59018	777.949	0.441179	-0.170948	8.57323	0.0336174	1	37	0.00489577	0.00165147	0	-4.3267e-05	0.949866	0.471037	26.0977	6.17647e-06	1.18224e-05	2.21462e-05	1.38785e-05	2.9755e-05	1.79252e-05	0.479165	0.30981	10.7053	1.69925e-06	3.97897e-06	2.0268e-06	4.07224e-06	3.68016e-06	1.89023e-06	0.336664	0.0211232	0.337326	3.59018	33.6174	535.798	536.852	-86.4098	0.0000000E+000	0.0000000E+000	0.0000000E+000	86.4098	0.0000000E+000	0.0000000E+000	0.0000000E+000	-86.4098	0.0000000E+000	0.0000000E+000	0.0000000E+000	-3.59018	0.0000000E+000	0.0000000E+000	0.0000000E+000	3.59018	15.9381	86.4098	-4.3267e-05
63093.8	2.956	0.264888	2.96784	-5.12063	779.579	0.441159	-0.0720473	9.52293	0.0758603	1	37	0.00518498	0.00174705	0	-7.89705e-05	1.62243	1.63455	24.786	3.65407e-05	4.28468e-05	2.45947e-05	7.18419e-06	3.98335e-05	2.71913e-05	0.454342	0.237422	10.1633	4.27538e-06	3.1108e-06	3.07738e-06	2.3066e-06	2.56446e-06	3.1571e-06	0.335601	0.0300733	0.336945	5.12063	75.8604	846.556	849.948	-84.8794	0.0000000E+000	0.0000000E+000	0.0000000E+000	84.8794	0.0000000E+000	0.0000000E+000	0.0000000E+000	-84.8794	0.0000000E+000	0.0000000E+000	0.0000000E+000	-5.12063	0.0000000E+000	0.0000000E+000	0.0000000E+000	5.12063	11.1594	84.8794	-1.7242e-05
39814.1	2.98294	0.400719	3.00974	-7.65113	781.209	0.44116	-0.065887	9.9757	0.176834	1	37	0.00517665	0.00171997	0	-0.000112969	1.51316	0.573169	25.3706	5.10864e-05	1.47174e-05	3.24743e-05	8.99118e-06	2.75459e-05	3.44365e-05	0.565591	0.25996	10.4205	1.79325e-06	6.01021e-06	3.53615e-06	2.45729e-06	3.41189e-06	4.37532e-06	0.329297	0.0442366	0.332255	7.65113	176.834	1316.35	1328.17	-82.3489	0.0000000E+000	0.0000000E+000	0.0000000E+000	82.3489	0.0000000E+000	0.0000000E+000	0.0000000E+000	-82.3489	0.0000000E+000	0.0000000E+000	0.0000000E+000	-7.65113	0.0000000E+000	0.0000000E+000	0.0000000E+000	7.65113	7.44398	82.3489	-1.77295e-05
25116.9	3.03454	0.601217	3.09352	-11.2066	782.839	0.441181	-0.0684553	10.5396	0.398088	1	37	0.00513784	0.00166084	0	-0.000140556	1.32481	1.37587	24.8585	5.47559e-05	2.61601e-05	1.62039e-05	1.42003e-05	1.28648e-05	1.08468e-05	0.581722	0.353425	10.581	4.02812e-06	2.5147e-06	4.92228e-06	2.76994e-06	4.28459e-06	2.3642e-06	0.317093	0.0628239	0.323256	11.2066	398.087	2009.28	2048.33	-78.7934	0.0000000E+000	0.0000000E+000	0.0000000E+000	78.7934	0.0000000E+000	0.0000000E+000	0.0000000E+000	-78.7934	0.0000000E+000	0.0000000E+000	0.0000000E+000	-11.2066	0.0000000E+000	0.0000000E+000	0.0000000E+000	11.2066	5.04733	78.7934	-1.32912e-05
15847.7	3.0867	0.864359	3.20544	-15.6436	784.469	0.441181	-0.06062	11.6188	0.844836	1	37	0.00506459	0.00158	0	-0.000173953	1.37768	0.515064	25.2948	1.35088e-05	2.02672e-05	2.33322e-05	2.42167e-05	3.20768e-05	4.35838e-05	0.632277	0.341838	11.3364	4.65804e-06	5.34309e-06	3.5011e-06	3.23543e-06	2.73949e-06	3.88513e-06	0.300413	0.0841237	0.311969	15.6436	844.836	3016.99	3133.04	-74.3564	0.0000000E+000	0.0000000E+000	0.0000000E+000	74.3564	0.0000000E+000	0.0000000E+000	0.0000000E+000	-74.3564	0.0000000E+000	0.0000000E+000	0.0000000E+000	-15.6436	0.0000000E+000	0.0000000E+000	0.0000000E+000	15.6436	3.57109	74.3564	-1.58296e-05
10002.2	3.19001	1.24475	3.42426	-21.3158	786.099	0.441154	-0.0659614	12.7833	1.68916	1	37	0.00502886	0.0014686	0	-0.000206133	2.4467	0.551939	25.8284	2.08385e-05	3.32818e-05	3.19944e-05	0.000104639	2.87268e-05	1.37225e-05	0.720706	0.380307	12.387	4.55735e-06	2.879e-06	3.07823e-06	4.36574e-06	5.56776e-06	2.12568e-06	0.272056	0.106157	0.292034	21.3158	1689.16	4328.94	4646.83	-68.6842	0.0000000E+000	0.0000000E+000	0.0000000E+000	68.6842	0.0000000E+000	0.0000000E+000	0.0000000E+000	-68.6842	0.0000000E+000	0.0000000E+000	0.0000000E+000	-21.3158	0.0000000E+000	0.0000000E+000	0.0000000E+000	21.3158	2.56278	68.6842	-1.77179e-05
6307.74	3.31317	1.87736	3.80809	-29.5375	787.851	0.441052	-0.0637095	13.44	3.26648	1	37	0.0049306	0.00129477	0	-0.000235362	1.73944	0.854106	25.915	2.21662e-05	6.04591e-05	1.53998e-05	3.21179e-05	2.33032e-05	3.11775e-05	0.651023	0.22439	13.8114	2.07183e-06	2.07743e-06	3.69636e-06	1.9147e-06	4.95936e-06	4.36985e-06	0.228469	0.129459	0.262598	29.5375	3266.48	5764.67	6625.81	-60.4625	0.0000000E+000	0.0000000E+000	0.0000000E+000	60.4625	0.0000000E+000	0.0000000E+000	0.0000000E+000	-60.4625	0.0000000E+000	0.0000000E+000	0.0000000E+000	-29.5375	0.0000000E+000	0.0000000E+000	0.0000000E+000	29.5375	1.7648	60.4625	-1.39838e-05
3981.28	3.44683	2.8122	4.44849	-39.2103	789.604	0.441024	-0.00284345	14.2152	5.6809	1	38	0.00551927	0.00124071	0	-0.000241437	1.23108	0.520752	23.1746	2.91514e-05	2.55097e-05	1.7598e-05	2.73611e-05	1.96596e-05	3.41376e-05	0.179051	0.132545	2.44263	1.76621e-06	5.09455e-07	1.00612e-06	5.10609e-07	3.67803e-07	1.7402e-07	0.174178	0.142108	0.224795	39.2103	5680.9	6962.92	8986.38	-50.7897	0.0000000E+000	0.0000000E+000	0.0000000E+000	50.7897	0.0000000E+000	0.0000000E+000	0.0000000E+000	-50.7897	0.0000000E+000	0.0000000E+000	0.0000000E+000	-39.2103	0.0000000E+000	0.0000000E+000	0.0000000E+000	39.2103	1.22567	50.7897	1.37563e-07
2512.41	3.63195	4.25716	5.59594	-49.5312	791.312	0.441036	-0.00226626	14.8802	8.612	1	38	0.00513065	0.000916853	0	-0.000243757	1.27105	0.801167	24.2053	3.2659e-05	6.59029e-06	4.13605e-05	2.49758e-05	1.61032e-05	9.40695e-06	0.334771	0.102758	3.24137	2.19962e-06	9.62738e-07	6.48332e-07	1.56487e-06	5.5341e-07	6.31639e-07	0.115983	0.135949	0.178701	49.5312	8612	7347.24	11320.3	-40.4688	0.0000000E+000	0.0000000E+000	0.0000000E+000	40.4688	0.0000000E+000	0.0000000E+000	0.0000000E+000	-40.4688	0.0000000E+000	0.0000000E+000	0.0000000E+000	-49.5312	0.0000000E+000	0.0000000E+000	0.0000000E+000	49.5312	0.853139	40.4688	-1.1258e-06
1584.49	3.93316	6.47908	7.57946	-58.7399	792.799	0.441078	-0.00270754	15.503	11.3284	1	38	0.00485138	0.00064007	0	-0.000245568	1.31546	0.761437	25.5155	1.29329e-05	2.12153e-05	4.06839e-05	2.96347e-05	1.76375e-05	1.67447e-05	0.564862	0.121454	4.64784	3.00672e-06	1.35563e-06	4.56164e-07	6.98051e-07	8.97333e-07	5.06603e-07	0.0684645	0.112781	0.131936	58.7399	11328.4	6876.94	13252.3	-31.2601	0.0000000E+000	0.0000000E+000	0.0000000E+000	31.2601	0.0000000E+000	0.0000000E+000	0.0000000E+000	-31.2601	0.0000000E+000	0.0000000E+000	0.0000000E+000	-58.7399	0.0000000E+000	0.0000000E+000	0.0000000E+000	58.7399	0.607055	31.2601	-1.19296e-06
999.682	4.41233	9.9848	10.9163	-66.1591	794.286	0.44107	-0.00325682	15.9448	13.3398	1	38	0.00467845	0.000428576	0	-0.000247014	1.60531	0.8099	26.7133	1.08061e-05	2.84665e-05	4.13765e-05	2.67942e-05	1.5812e-05	4.02602e-05	0.585481	0.24776	6.91083	1.78264e-06	1.33947e-06	3.94898e-07	5.58063e-07	5.03631e-07	3.52391e-07	0.0370271	0.0837898	0.0916064	66.1591	13339.8	5894.92	14584.3	-23.8409	0.0000000E+000	0.0000000E+000	0.0000000E+000	23.8409	0.0000000E+000	0.0000000E+000	0.0000000E+000	-23.8409	0.0000000E+000	0.0000000E+000	0.0000000E+000	-66.1591	0.0000000E+000	0.0000000E+000	0.0000000E+000	66.1591	0.441905	23.8409	-5.0764e-07
631.01	5.05678	15.2722	16.0876	-71.6797	795.774	0.441101	0.00130119	16.5152	14.8834	1	38	0.00456237	0.000283596	0	-0.000247219	1.64606	0.646911	27.6258	3.13993e-05	2.39049e-05	2.33871e-05	5.06858e-05	2.70905e-05	1.08431e-05	0.773749	0.243708	10.7666	1.15396e-06	1.1323e-06	6.3125e-07	1.07484e-06	2.76828e-07	4.40911e-07	0.0195386	0.0590092	0.0621598	71.6797	14883.4	4928.07	15678.1	-18.3203	0.0000000E+000	0.0000000E+000	0.0000000E+000	18.3203	0.0000000E+000	0.0000000E+000	0.0000000E+000	-18.3203	0.0000000E+000	0.0000000E+000	0.0000000E+000	-71.6797	0.0000000E+000	0.0000000E+000	0.0000000E+000	71.6797	0.331111	18.3203	4.38043e-07
398.089	6.07973	23.1424	23.9276	-75.2804	797.484	0.441079	0.000679301	17.2756	16.1602	1	38	0.00492627	0.000205882	0	-0.000247236	1.12715	0.665476	24.7564	1.55017e-05	2.16207e-05	2.68103e-05	1.61393e-05	1.52708e-05	3.20628e-05	1.32627	0.331385	14.5022	1.53918e-06	5.40734e-07	9.20308e-07	1.70704e-06	8.22127e-07	5.19963e-07	0.010619	0.0404211	0.0417927	75.2804	16160.2	4245.46	16708.6	-14.7196	0.0000000E+000	0.0000000E+000	0.0000000E+000	14.7196	0.0000000E+000	0.0000000E+000	0.0000000E+000	-14.7196	0.0000000E+000	0.0000000E+000	0.0000000E+000	-75.2804	0.0000000E+000	0.0000000E+000	0.0000000E+000	75.2804	0.26271	14.7196	1.26719e-07
251.206	7.92309	35.7906	36.6571	-77.5176	799.221	0.441086	0.00142764	17.7019	16.875	1	39	0.0050509	0.000137788	0	-0.000246127	1.26522	0.300695	24.1785	2.36459e-05	2.32273e-05	1.67521e-05	3.72742e-05	1.70379e-05	2.44446e-05	0.969944	0.132699	8.91344	8.09122e-07	4.35979e-07	7.30691e-08	8.44901e-07	2.74852e-07	2.92536e-07	0.00589627	0.026635	0.0272798	77.5176	16875	3735.66	17283.5	-12.4824	0.0000000E+000	0.0000000E+000	0.0000000E+000	12.4824	0.0000000E+000	0.0000000E+000	0.0000000E+000	-12.4824	0.0000000E+000	0.0000000E+000	0.0000000E+000	-77.5176	0.0000000E+000	0.0000000E+000	0.0000000E+000	77.5176	0.221373	12.4825	5.18625e-07
158.529	10.8146	54.8141	55.8708	-78.8391	800.714	0.441067	0.0015499	18.3155	17.6293	1	39	0.00497555	8.90547e-05	0	-0.000245629	1.26995	0.539306	25.2172	2.97373e-05	1.95411e-05	1.92366e-05	2.72494e-05	3.20982e-05	1.26238e-05	1.00834	0.380205	13.6907	4.05356e-07	3.67893e-07	2.09317e-07	4.89263e-07	2.9693e-07	2.38001e-07	0.00346452	0.0175599	0.0178984	78.8391	17629.3	3478.2	17969.1	-11.1609	0.0000000E+000	0.0000000E+000	0.0000000E+000	11.1609	0.0000000E+000	0.0000000E+000	0.0000000E+000	-11.1609	0.0000000E+000	0.0000000E+000	0.0000000E+000	-78.8391	0.0000000E+000	0.0000000E+000	0.0000000E+000	78.8391	0.197297	11.1609	1.73689e-07
99.9682	16.4065	83.3446	84.944	-78.8636	802.186	0.441079	0.00111713	19.1021	18.3895	1	39	0.00491679	5.78827e-05	0	-0.00024512	1.33085	0.781878	25.0819	1.805e-05	1.72966e-05	3.12752e-05	2.68014e-05	2.25166e-05	3.1799e-05	0.985698	0.503875	21.13	2.90575e-07	1.84485e-07	1.34937e-07	2.45057e-07	2.67265e-07	1.90424e-07	0.00227379	0.0115508	0.0117725	78.8636	18389.5	3620	18742.4	-11.1364	0.0000000E+000	0.0000000E+000	0.0000000E+000	11.1364	0.0000000E+000	0.0000000E+000	0.0000000E+000	-11.1364	0.0000000E+000	0.0000000E+000	0.0000000E+000	-78.8636	0.0000000E+000	0.0000000E+000	0.0000000E+000	78.8636	0.196852	11.1364	1.96738e-07