File: Python/Data/GoldElectrode/240322/Carbon/240322-CVEIS-5mM_Fe2Fe3-1M_H2SO4-0000RPM-Ag_AgCl_BLF8-GC_RDE_02_PEIS_C15.mpt
EC-Lab ASCII FILE
Nb header lines : 65

Potentio Electrochemical Impedance Spectroscopy

Run on channel : 15 (SN 19485)
User :
Electrode connection : standard
Potential control : Ewe
Ewe ctrl range : min = -1.00 V, max = 1.00 V
Ewe,I filtering : <None>
Safety Limits :
	Do not start on E overload
Channel : Floating
Acquisition started on : 03/22/2024 12:30:07.620
Loaded Setting File :  C:\Data\mathias\GoldElectrode\240321-CVEIS-5mM_Fe2Fe3-1M_H2SO4-0000RPM-Ag_AgCl_BLF8-Au_RDE.mps
Saved on :
	File : 240321-CVEIS-5mM_Fe2Fe3-1M_H2SO4-0000RPM-Ag_AgCl_BLF8-GC_RDE_02_PEIS_C15.mpr
	Directory : C:\Data\mathias\GoldElectrode\
	Host : 192.168.0.1
Device : VMP-300 (SN 0826)
Address : USB
EC-Lab for windows v11.52 (software)
Internet server v11.52 (firmware)
Command interpretor v11.52 (firmware)
Electrode material :
Initial state :
Electrolyte :
Comments :
Cable : special
Electrode surface area : 0.001 cm²
Characteristic mass : 0.001 g
Equivalent Weight : 0.000 g/eq.
Density : 0.000 g/cm3
Volume (V) : 0.001 cm³
Cycle Definition : Charge/Discharge alternance
Mode                Multi sine
E (V)               0.0000
vs.                 Eoc
tE (h:m:s)          0:00:0.0000
record              0
dI                  0.000
unit dI             mA
dt (s)              0.000
fi                  400.000
unit fi             kHz
ff                  100.000
unit ff             mHz
Nd                  10
Points              per decade
spacing             Logarithmic
Va (mV)             5.0
pw                  0.10
Na                  3
corr                0
E range min (V)     -1.000
E range max (V)     1.000
I Range             Auto
Bandwidth           8
nc cycles           2
goto Ns'            0
nr cycles           0
inc. cycle          1

freq/Hz	Re(Z)/Ohm	-Im(Z)/Ohm	|Z|/Ohm	Phase(Z)/deg	time/s	<Ewe>/V	<I>/mA	Cs/µF	Cp/µF	cycle number	I Range	|Ewe|/V	|I|/A	Ns	(Q-Qo)/mA.h	Re(Y)/Ohm-1	Im(Y)/Ohm-1	|Y|/Ohm-1	Phase(Y)/deg	Re(C)/nF	Im(C)/nF	|C|/nF	Phase(C)/deg	Re(M)	Im(M)	|M|	Phase(M)/deg	Re(Permittivity)	Im(Permittivity)	|Permittivity|	Phase(Permittivity)/deg	Re(Resistivity)/Ohm.cm	Im(Resistivity)/Ohm.cm	|Resistivity|/Ohm.cm	Phase(Resistivity)/deg	Re(Conductivity)/mS/cm	Im(Conductivity)/mS/cm	|Conductivity|/mS/cm	Phase(Conductivity)/deg	Tan(Delta)	Loss Angle(Delta)/deg	dq/mA.h
399996	3.13037	1.24481	3.36879	-21.6855	142.782	0.441228	-0.015931	0.319641	0.0436433	1	38	0.00458292	0.0013604	0	-2.55239e-06	0.275834	0.109687	0.296842	21.6855	43.6433	109.752	118.111	-68.3145	0.0000000E+000	0.0000000E+000	0.0000000E+000	68.3145	0.0000000E+000	0.0000000E+000	0.0000000E+000	-68.3145	0.0000000E+000	0.0000000E+000	0.0000000E+000	-21.6855	0.0000000E+000	0.0000000E+000	0.0000000E+000	21.6855	2.51474	68.3145	-2.55239e-06
50326.6	3.06871	0.78595	3.16776	-14.3656	148.178	0.441246	-0.0755462	4.02372	0.247692	1	37	0.00516058	0.00162909	0	-0.000112944	0.30581	0.0783231	0.31568	14.3656	247.692	967.105	998.32	-75.6344	0.0000000E+000	0.0000000E+000	0.0000000E+000	75.6344	0.0000000E+000	0.0000000E+000	0.0000000E+000	-75.6344	0.0000000E+000	0.0000000E+000	0.0000000E+000	-14.3656	0.0000000E+000	0.0000000E+000	0.0000000E+000	14.3656	3.90446	75.6344	-8.73033e-06
6332.63	3.76511	4.65053	5.9836	-51.0061	153.726	0.441117	-0.006383	5.40423	3.26447	1	38	0.00524689	0.000876878	0	-0.000184278	0.10516	0.12989	0.167123	51.0061	3264.47	2642.95	4200.23	-38.9939	0.0000000E+000	0.0000000E+000	0.0000000E+000	38.9939	0.0000000E+000	0.0000000E+000	0.0000000E+000	-38.9939	0.0000000E+000	0.0000000E+000	0.0000000E+000	-51.0061	0.0000000E+000	0.0000000E+000	0.0000000E+000	51.0061	0.809609	38.9939	-4.98237e-07
796.787	7.72077	30.0524	31.0284	-75.5917	160.099	0.441127	-0.00505918	6.64658	6.23505	1	38	0.0048186	0.000155297	0	-0.000194055	0.00801942	0.0312149	0.0322286	75.5917	6235.04	1601.85	6437.52	-14.4083	0.0000000E+000	0.0000000E+000	0.0000000E+000	14.4083	0.0000000E+000	0.0000000E+000	0.0000000E+000	-14.4083	0.0000000E+000	0.0000000E+000	0.0000000E+000	-75.5917	0.0000000E+000	0.0000000E+000	0.0000000E+000	75.5917	0.25691	14.4083	-1.15717e-06
100.224	36.7558	195.582	199.005	-79.3565	166.501	0.441133	2.0285e-05	8.11929	7.84232	1	39	0.00476159	2.39269e-05	0	-0.000194156	0.000928102	0.00493853	0.00502499	79.3565	7842.32	1473.81	7979.61	-10.6435	0.0000000E+000	0.0000000E+000	0.0000000E+000	10.6435	0.0000000E+000	0.0000000E+000	0.0000000E+000	-10.6435	0.0000000E+000	0.0000000E+000	0.0000000E+000	-79.3565	0.0000000E+000	0.0000000E+000	0.0000000E+000	79.3565	0.187931	10.6435	7.86006e-09
12.6144	337.244	1218.38	1264.19	-74.528	172.972	0.441137	0.000177716	10.3556	9.61862	1	40	0.00474573	3.75398e-06	0	-0.000193745	0.000211019	0.000762355	0.000791021	74.528	9618.62	2662.42	9980.29	-15.472	0.0000000E+000	0.0000000E+000	0.0000000E+000	15.472	0.0000000E+000	0.0000000E+000	0.0000000E+000	-15.472	0.0000000E+000	0.0000000E+000	0.0000000E+000	-74.528	0.0000000E+000	0.0000000E+000	0.0000000E+000	74.528	0.276798	15.472	4.0057e-08
1.60158	3854.36	5007.38	6319.02	-52.4132	205.126	0.441098	4.82276e-05	19.8455	12.4619	1	41	0.00500538	7.92114e-07	0	-0.000192992	9.65281e-05	0.000125404	0.000158253	52.4132	12461.9	9592.37	15726.2	-37.5868	0.0000000E+000	0.0000000E+000	0.0000000E+000	37.5868	0.0000000E+000	0.0000000E+000	0.0000000E+000	-37.5868	0.0000000E+000	0.0000000E+000	0.0000000E+000	-52.4132	0.0000000E+000	0.0000000E+000	0.0000000E+000	52.4132	0.769737	37.5868	0.000000000000000E+000
0.100099	15504.5	4777.17	16223.8	-17.1248	205.132	0.441098	4.82276e-05	332.829	28.8574	1	41	0.005003	3.08374e-07	0	-0.000192992	5.89052e-05	1.81495e-05	6.16379e-05	17.1248	28857.4	93658.1	98003	-72.8752	0.0000000E+000	0.0000000E+000	0.0000000E+000	72.8752	0.0000000E+000	0.0000000E+000	0.0000000E+000	-72.8752	0.0000000E+000	0.0000000E+000	0.0000000E+000	-17.1248	0.0000000E+000	0.0000000E+000	0.0000000E+000	17.1248	3.24555	72.8752	0.000000000000000E+000
63362.9	3.05005	0.644101	3.11732	-11.9244	212.409	0.441235	-0.0423437	3.8997	0.166485	2	37	0.00518883	0.00166452	0	-0.000232563	0.313866	0.0662813	0.320788	11.9244	166.485	788.369	805.756	-78.0757	0.0000000E+000	0.0000000E+000	0.0000000E+000	78.0757	0.0000000E+000	0.0000000E+000	0.0000000E+000	-78.0757	0.0000000E+000	0.0000000E+000	0.0000000E+000	-11.9244	0.0000000E+000	0.0000000E+000	0.0000000E+000	11.9244	4.73536	78.0757	-3.49207e-06
7967.67	3.64576	3.86252	5.31137	-46.6537	217.749	0.441107	-0.00353796	5.17152	2.73494	2	38	0.00521631	0.000982104	0	-0.000277395	0.129233	0.136917	0.188275	46.6537	2734.94	2581.45	3760.82	-43.3463	0.0000000E+000	0.0000000E+000	0.0000000E+000	43.3463	0.0000000E+000	0.0000000E+000	0.0000000E+000	-43.3463	0.0000000E+000	0.0000000E+000	0.0000000E+000	-46.6537	0.0000000E+000	0.0000000E+000	0.0000000E+000	46.6537	0.94388	43.3463	-1.13778e-06
1002.75	6.83332	24.7555	25.6813	-74.5688	224.199	0.441124	-0.00283976	6.41142	5.9575	2	38	0.00468613	0.000182472	0	-0.000285945	0.0103609	0.0375351	0.0389388	74.5688	5957.5	1644.46	6180.3	-15.4312	0.0000000E+000	0.0000000E+000	0.0000000E+000	15.4312	0.0000000E+000	0.0000000E+000	0.0000000E+000	-15.4312	0.0000000E+000	0.0000000E+000	0.0000000E+000	-74.5688	0.0000000E+000	0.0000000E+000	0.0000000E+000	74.5688	0.276032	15.4312	-7.31073e-07
126.171	30.4292	163.906	166.707	-79.4828	230.601	0.441156	-4.96071e-05	7.69601	7.4396	2	39	0.00460544	2.7626e-05	0	-0.000286498	0.00109493	0.00589779	0.00599856	79.4828	7439.6	1381.16	7566.72	-10.5172	0.0000000E+000	0.0000000E+000	0.0000000E+000	10.5172	0.0000000E+000	0.0000000E+000	0.0000000E+000	-10.5172	0.0000000E+000	0.0000000E+000	0.0000000E+000	-79.4828	0.0000000E+000	0.0000000E+000	0.0000000E+000	79.4828	0.18565	10.5172	4.11633e-10
15.879	258.79	1023.42	1055.63	-75.8092	236.954	0.441133	-2.73286e-05	9.79362	9.20503	2	40	0.00459526	4.3531e-06	0	-0.000286509	0.000232234	0.000918395	0.000947302	75.8092	9205.03	2327.66	9494.77	-14.1908	0.0000000E+000	0.0000000E+000	0.0000000E+000	14.1908	0.0000000E+000	0.0000000E+000	0.0000000E+000	-14.1908	0.0000000E+000	0.0000000E+000	0.0000000E+000	-75.8092	0.0000000E+000	0.0000000E+000	0.0000000E+000	75.8092	0.252869	14.1908	-1.07726e-08
2.00197	2995.82	4538.9	5438.44	-56.5739	269.944	0.441096	1.26999e-05	17.515	12.2001	2	41	0.00500611	9.20506e-07	0	-0.000286538	0.00010129	0.000153463	0.000183876	56.5739	12200.1	8052.48	14618	-33.4261	0.0000000E+000	0.0000000E+000	0.0000000E+000	33.4261	0.0000000E+000	0.0000000E+000	0.0000000E+000	-33.4261	0.0000000E+000	0.0000000E+000	0.0000000E+000	-56.5739	0.0000000E+000	0.0000000E+000	0.0000000E+000	56.5739	0.660031	33.4261	0.000000000000000E+000
0.200197	13124	4811.84	13978.3	-20.1351	269.95	0.441096	1.26999e-05	165.215	19.5777	2	41	0.00500575	3.58107e-07	0	-0.000286538	6.7167e-05	2.46263e-05	7.15392e-05	20.1351	19577.7	53397.1	56873	-69.8649	0.0000000E+000	0.0000000E+000	0.0000000E+000	69.8649	0.0000000E+000	0.0000000E+000	0.0000000E+000	-69.8649	0.0000000E+000	0.0000000E+000	0.0000000E+000	-20.1351	0.0000000E+000	0.0000000E+000	0.0000000E+000	20.1351	2.72744	69.8649	3.46618e-11
79767.3	3.03926	0.544437	3.08764	-10.1559	276.523	0.441251	-0.0317539	3.66478	0.113943	3	37	0.00520508	0.00168578	0	-0.000322732	0.318797	0.0571076	0.323872	10.1559	113.943	636.077	646.202	-79.8441	0.0000000E+000	0.0000000E+000	0.0000000E+000	79.8441	0.0000000E+000	0.0000000E+000	0.0000000E+000	-79.8441	0.0000000E+000	0.0000000E+000	0.0000000E+000	-10.1559	0.0000000E+000	0.0000000E+000	0.0000000E+000	10.1559	5.5824	79.8441	-4.1882e-06
10039.3	3.52565	3.16846	4.74019	-41.9456	281.648	0.441237	-0.00238542	5.00341	2.23549	3	38	0.00494305	0.0010428	0	-0.000349918	0.156909	0.141012	0.210962	41.9456	2235.49	2487.5	3344.41	-48.0544	0.0000000E+000	0.0000000E+000	0.0000000E+000	48.0544	0.0000000E+000	0.0000000E+000	0.0000000E+000	-48.0544	0.0000000E+000	0.0000000E+000	0.0000000E+000	-41.9456	0.0000000E+000	0.0000000E+000	0.0000000E+000	41.9456	1.11273	48.0544	9.12754e-07
1262.98	6.15198	20.3792	21.2875	-73.2022	288.043	0.441097	-0.00245247	6.18354	5.66711	3	38	0.00476072	0.000223639	0	-0.00035606	0.0135758	0.0449714	0.0469759	73.2022	5667.11	1710.76	5919.7	-16.7978	0.0000000E+000	0.0000000E+000	0.0000000E+000	16.7978	0.0000000E+000	0.0000000E+000	0.0000000E+000	-16.7978	0.0000000E+000	0.0000000E+000	0.0000000E+000	-73.2022	0.0000000E+000	0.0000000E+000	0.0000000E+000	73.2022	0.301876	16.7978	-4.38502e-07
158.831	24.1377	133.757	135.918	-79.7706	294.452	0.441157	-0.000154166	7.49149	7.25522	3	39	0.00461433	3.39494e-05	0	-0.000356575	0.0013066	0.00724044	0.00735739	79.7706	7255.22	1309.27	7372.41	-10.2294	0.0000000E+000	0.0000000E+000	0.0000000E+000	10.2294	0.0000000E+000	0.0000000E+000	0.0000000E+000	-10.2294	0.0000000E+000	0.0000000E+000	0.0000000E+000	-79.7706	0.0000000E+000	0.0000000E+000	0.0000000E+000	79.7706	0.180459	10.2294	-2.3254e-08
19.9808	202.835	846.563	870.523	-76.526	300.834	0.441104	4.47201e-05	9.40909	8.89826	3	40	0.00459412	5.27742e-06	0	-0.000356637	0.000267659	0.00111712	0.00114873	76.526	8898.26	2132.01	9150.11	-13.474	0.0000000E+000	0.0000000E+000	0.0000000E+000	13.474	0.0000000E+000	0.0000000E+000	0.0000000E+000	-13.474	0.0000000E+000	0.0000000E+000	0.0000000E+000	-76.526	0.0000000E+000	0.0000000E+000	0.0000000E+000	76.526	0.239598	13.474	-1.83407e-09
2.50247	2442.93	4084.63	4759.42	-59.1172	334.472	0.44112	7.41094e-06	15.5704	11.4682	3	41	0.00500161	1.05089e-06	0	-0.000356777	0.000107846	0.00018032	0.00021011	59.1172	11468.2	6858.91	13362.8	-30.8828	0.0000000E+000	0.0000000E+000	0.0000000E+000	30.8828	0.0000000E+000	0.0000000E+000	0.0000000E+000	-30.8828	0.0000000E+000	0.0000000E+000	0.0000000E+000	-59.1172	0.0000000E+000	0.0000000E+000	0.0000000E+000	59.1172	0.59808	30.8828	0.000000000000000E+000
0.300296	11374.6	5329.14	12561.1	-25.1037	334.479	0.44112	7.41094e-06	99.4519	17.9008	3	41	0.00501273	3.99068e-07	0	-0.000356777	7.20909e-05	3.37755e-05	7.96109e-05	25.1037	17900.8	38207.7	42193.2	-64.8963	0.0000000E+000	0.0000000E+000	0.0000000E+000	64.8963	0.0000000E+000	0.0000000E+000	0.0000000E+000	-64.8963	0.0000000E+000	0.0000000E+000	0.0000000E+000	-25.1037	0.0000000E+000	0.0000000E+000	0.0000000E+000	25.1037	2.13441	64.8963	0.000000000000000E+000
0.100099	15477.7	3783.82	15933.5	-13.7376	334.48	0.44112	7.41094e-06	420.205	23.6972	3	41	0.00500313	3.14e-07	0	-0.000356777	6.09653e-05	1.49041e-05	6.27607e-05	13.7376	23697.2	96933.7	99788.3	-76.2624	0.0000000E+000	0.0000000E+000	0.0000000E+000	76.2624	0.0000000E+000	0.0000000E+000	0.0000000E+000	-76.2624	0.0000000E+000	0.0000000E+000	0.0000000E+000	-13.7376	0.0000000E+000	0.0000000E+000	0.0000000E+000	13.7376	4.09051	76.2624	0.000000000000000E+000