File: Python/Data/GoldElectrode/240322/Carbon/240322-CVEIS-Activation-5mM_Fe2Fe3-1M_H2SO4-0000RPM-Ag_AgCl_BLF8-GC_RDE_04_PEIS_C15.mpt
EC-Lab ASCII FILE
Nb header lines : 66

Potentio Electrochemical Impedance Spectroscopy

Run on channel : 15 (SN 19485)
User :
Electrode connection : standard
Potential control : Ewe
Ewe ctrl range : min = -2.50 V, max = 2.50 V
Ewe,I filtering : 50 kHz
Safety Limits :
	Do not start on E overload
Channel : Floating
Acquisition started on : 03/22/2024 12:39:19.547
Loaded Setting File :  C:\Data\mathias\GoldElectrode\240322-CVEIS-Activation-5mM_Fe2Fe3-1M_H2SO4-0000RPM-Ag_AgCl_BLF8-Au_RDE.mps
Saved on :
	File : 240322-CVEIS-Activation-5mM_Fe2Fe3-1M_H2SO4-0000RPM-Ag_AgCl_BLF8-GC_RDE_04_PEIS_C15.mpr
	Directory : C:\Data\mathias\GoldElectrode\
	Host : 192.168.0.1
Device : VMP-300 (SN 0826)
Address : USB
EC-Lab for windows v11.52 (software)
Internet server v11.52 (firmware)
Command interpretor v11.52 (firmware)
Electrode material :
Initial state :
Electrolyte :
Comments :
Cable : special
Electrode surface area : 0.001 cm²
Characteristic mass : 0.001 g
Equivalent Weight : 0.000 g/eq.
Density : 0.000 g/cm3
Volume (V) : 0.001 cm³
Record EIS quality indicators
Cycle Definition : Charge/Discharge alternance
Mode                Single sine
E (V)               0.0000
vs.                 Eoc
tE (h:m:s)          0:00:0.0000
record              0
dI                  0.000
unit dI             mA
dt (s)              0.000
fi                  100.000
unit fi             kHz
ff                  100.000
unit ff             Hz
Nd                  10
Points              per decade
spacing             Logarithmic
Va (mV)             5.0
pw                  0.10
Na                  2
corr                0
E range min (V)     -2.500
E range max (V)     2.500
I Range             Auto
Bandwidth           8
nc cycles           0
goto Ns'            0
nr cycles           0
inc. cycle          0

freq/Hz	Re(Z)/Ohm	-Im(Z)/Ohm	|Z|/Ohm	Phase(Z)/deg	time/s	<Ewe>/V	<I>/mA	Cs/µF	Cp/µF	cycle number	I Range	|Ewe|/V	|I|/A	Ns	(Q-Qo)/mA.h	THD Ewe/%	NSD Ewe/%	NSR Ewe/%	|Ewe h2|/V	|Ewe h3|/V	|Ewe h4|/V	|Ewe h5|/V	|Ewe h6|/V	|Ewe h7|/V	THD I/%	NSD I/%	NSR I/%	|I h2|/A	|I h3|/A	|I h4|/A	|I h5|/A	|I h6|/A	|I h7|/A	Re(Y)/Ohm-1	Im(Y)/Ohm-1	|Y|/Ohm-1	Phase(Y)/deg	Re(C)/nF	Im(C)/nF	|C|/nF	Phase(C)/deg	Re(M)	Im(M)	|M|	Phase(M)/deg	Re(Permittivity)	Im(Permittivity)	|Permittivity|	Phase(Permittivity)/deg	Re(Resistivity)/Ohm.cm	Im(Resistivity)/Ohm.cm	|Resistivity|/Ohm.cm	Phase(Resistivity)/deg	Re(Conductivity)/mS/cm	Im(Conductivity)/mS/cm	|Conductivity|/mS/cm	Phase(Conductivity)/deg	Tan(Delta)	Loss Angle(Delta)/deg	dq/mA.h
100004	2.96711	0.242139	2.97697	-4.66543	390.392	0.441185	-0.16449	6.57264	0.0434828	1	37	0.00484039	0.00162594	0	-3.92894e-05	1.0594	0.763487	27.2762	3.00764e-05	1.64468e-05	2.0858e-05	2.20125e-05	1.71115e-05	9.54888e-06	0.549272	0.25879	10.8897	1.71486e-06	3.12312e-06	5.98071e-06	3.49151e-06	1.4522e-06	3.26599e-06	0.334799	0.0273221	0.335912	4.66543	43.4828	532.829	534.6	-85.3346	0.0000000E+000	0.0000000E+000	0.0000000E+000	85.3346	0.0000000E+000	0.0000000E+000	0.0000000E+000	-85.3346	0.0000000E+000	0.0000000E+000	0.0000000E+000	-4.66543	0.0000000E+000	0.0000000E+000	0.0000000E+000	4.66543	12.2538	85.3346	-3.92894e-05
63093.8	2.99949	0.320725	3.01659	-6.10326	392.022	0.44116	-0.071582	7.86502	0.0889068	1	37	0.00518423	0.00171858	0	-6.90254e-05	1.23849	0.433388	24.7453	3.9428e-05	1.70801e-05	3.23285e-05	2.00054e-05	2.0081e-05	1.8807e-05	0.551279	0.248631	10.3144	4.051e-06	1.88021e-06	3.07191e-06	4.75787e-06	3.31415e-06	3.98077e-06	0.329622	0.0352454	0.331501	6.10326	88.9068	831.475	836.214	-83.8967	0.0000000E+000	0.0000000E+000	0.0000000E+000	83.8967	0.0000000E+000	0.0000000E+000	0.0000000E+000	-83.8967	0.0000000E+000	0.0000000E+000	0.0000000E+000	-6.10326	0.0000000E+000	0.0000000E+000	0.0000000E+000	6.10326	9.3522	83.8967	-1.46518e-05
39814.1	3.00815	0.470654	3.04474	-8.89238	393.652	0.441207	-0.0670223	8.49341	0.202947	1	37	0.00514548	0.00168995	0	-0.000101057	1.09102	0.674084	24.3933	3.98524e-05	1.10798e-05	1.71585e-05	1.84438e-05	1.67639e-05	1.73005e-05	0.58614	0.404196	10.5059	2.86459e-06	1.04217e-06	4.11534e-06	6.10263e-06	3.56718e-06	2.63437e-06	0.324487	0.0507692	0.328435	8.89238	202.947	1297.12	1312.9	-81.1076	0.0000000E+000	0.0000000E+000	0.0000000E+000	81.1076	0.0000000E+000	0.0000000E+000	0.0000000E+000	-81.1076	0.0000000E+000	0.0000000E+000	0.0000000E+000	-8.89238	0.0000000E+000	0.0000000E+000	0.0000000E+000	8.89238	6.39143	81.1076	-1.77791e-05
25116.9	3.07327	0.715959	3.15556	-13.1139	395.282	0.441186	-0.0609178	8.85046	0.455605	1	37	0.00518729	0.00164386	0	-0.000130622	0.950154	0.301318	24.3674	2.12943e-05	1.56136e-05	2.39704e-05	1.74567e-05	2.49716e-05	8.77139e-06	0.517725	0.31592	10.9458	2.20171e-06	4.58055e-06	3.59956e-06	3.13916e-06	4.25637e-06	2.09562e-06	0.308636	0.0719009	0.316901	13.1139	455.605	1955.69	2008.06	-76.8861	0.0000000E+000	0.0000000E+000	0.0000000E+000	76.8861	0.0000000E+000	0.0000000E+000	0.0000000E+000	-76.8861	0.0000000E+000	0.0000000E+000	0.0000000E+000	-13.1139	0.0000000E+000	0.0000000E+000	0.0000000E+000	13.1139	4.29252	76.8861	-1.47359e-05
15847.7	3.1614	1.02617	3.32377	-17.983	396.912	0.441165	-0.0624811	9.7867	0.932845	1	37	0.00515953	0.00155231	0	-0.00015768	1.85796	0.529794	24.3583	2.85612e-05	2.65539e-05	6.67592e-05	2.88833e-05	2.41624e-05	3.69025e-05	0.561628	0.278428	11.4071	5.65922e-06	5.93142e-07	1.66805e-06	3.00941e-06	3.17417e-06	4.61577e-06	0.286165	0.0928871	0.300863	17.983	932.845	2873.9	3021.5	-72.017	0.0000000E+000	0.0000000E+000	0.0000000E+000	72.017	0.0000000E+000	0.0000000E+000	0.0000000E+000	-72.017	0.0000000E+000	0.0000000E+000	0.0000000E+000	-17.983	0.0000000E+000	0.0000000E+000	0.0000000E+000	17.983	3.08079	72.017	-1.30815e-05
10002.2	3.25779	1.50004	3.58655	-24.7236	398.542	0.441202	-0.0626486	10.6077	1.85555	1	37	0.00497027	0.00138581	0	-0.000182116	1.73494	1.13513	26.0316	4.8901e-05	2.05103e-05	2.23719e-05	5.82735e-05	1.92217e-05	1.32494e-05	0.4705	0.658614	12.9329	1.78726e-06	1.5865e-06	3.6824e-06	2.82665e-06	1.51048e-06	3.01897e-06	0.253262	0.116614	0.278819	24.7236	1855.55	4029.89	4436.56	-65.2764	0.0000000E+000	0.0000000E+000	0.0000000E+000	65.2764	0.0000000E+000	0.0000000E+000	0.0000000E+000	-65.2764	0.0000000E+000	0.0000000E+000	0.0000000E+000	-24.7236	0.0000000E+000	0.0000000E+000	0.0000000E+000	24.7236	2.1718	65.2764	-1.19272e-05
6307.74	3.40353	2.24764	4.07871	-33.4402	400.325	0.441043	-0.00318791	11.2259	3.409	1	38	0.00492737	0.00120807	0	-0.000201469	1.98959	0.872135	24.9084	2.01749e-05	1.31742e-05	2.10579e-05	2.63784e-05	4.90817e-05	7.03589e-05	0.174068	0.080067	2.46961	7.45812e-07	3.98764e-07	1.14848e-06	7.85037e-07	4.56262e-07	9.25861e-07	0.204589	0.135108	0.245175	33.4402	3409	5162.14	6186.19	-56.5598	0.0000000E+000	0.0000000E+000	0.0000000E+000	56.5598	0.0000000E+000	0.0000000E+000	0.0000000E+000	-56.5598	0.0000000E+000	0.0000000E+000	0.0000000E+000	-33.4402	0.0000000E+000	0.0000000E+000	0.0000000E+000	33.4402	1.51427	56.5598	-3.59173e-06
3981.28	3.60203	3.36084	4.92644	-43.0162	402.268	0.441058	-0.0043088	11.8946	5.53578	1	38	0.00502605	0.00102022	0	-0.000208136	1.06543	0.46233	25.0633	1.37994e-05	1.41822e-05	3.61169e-05	2.80145e-05	1.11555e-05	1.06746e-05	0.188441	0.151033	2.93619	1.2173e-06	6.94523e-07	7.04615e-07	7.75949e-07	5.76693e-07	3.4035e-07	0.148416	0.138478	0.202986	43.0162	5535.78	5933.04	8114.54	-46.9838	0.0000000E+000	0.0000000E+000	0.0000000E+000	46.9838	0.0000000E+000	0.0000000E+000	0.0000000E+000	-46.9838	0.0000000E+000	0.0000000E+000	0.0000000E+000	-43.0162	0.0000000E+000	0.0000000E+000	0.0000000E+000	43.0162	1.07176	46.9838	-3.18345e-06
2512.41	3.8276	5.08102	6.36139	-53.0088	403.754	0.441051	-0.00427716	12.4675	7.95384	1	38	0.00495806	0.000779398	0	-0.000209819	1.26514	1.958	24.8781	2.92633e-05	1.74974e-05	2.04452e-05	2.62612e-05	9.92687e-06	3.64623e-05	0.345177	0.309905	3.84261	1.93156e-06	9.25982e-07	7.93745e-07	6.01032e-07	8.30326e-07	7.65894e-07	0.094585	0.125559	0.157198	53.0088	7953.84	5991.72	9958.13	-36.9912	0.0000000E+000	0.0000000E+000	0.0000000E+000	36.9912	0.0000000E+000	0.0000000E+000	0.0000000E+000	-36.9912	0.0000000E+000	0.0000000E+000	0.0000000E+000	-53.0088	0.0000000E+000	0.0000000E+000	0.0000000E+000	53.0088	0.753312	36.9912	-3.37811e-07
1584.49	4.23896	7.77677	8.85703	-61.4061	405.241	0.441054	-0.00482829	12.9161	9.95757	1	38	0.0047035	0.000531047	0	-0.000212087	1.15263	0.705815	26.3776	1.6917e-05	2.71667e-05	3.08137e-05	1.89466e-05	7.2268e-06	1.90333e-05	0.417159	0.139511	5.52547	1.63895e-06	8.16902e-07	5.35534e-07	7.9738e-07	1.93645e-07	6.39908e-07	0.054036	0.0991342	0.112905	61.4061	9957.57	5427.66	11340.8	-28.5939	0.0000000E+000	0.0000000E+000	0.0000000E+000	28.5939	0.0000000E+000	0.0000000E+000	0.0000000E+000	-28.5939	0.0000000E+000	0.0000000E+000	0.0000000E+000	-61.4061	0.0000000E+000	0.0000000E+000	0.0000000E+000	61.4061	0.545079	28.5939	-8.30993e-07
999.682	4.77346	11.6439	12.5844	-67.7087	406.949	0.441068	-0.00422317	13.6729	11.7056	1	38	0.00492395	0.000391275	0	-0.000214172	1.77237	0.764671	25.3133	3.46902e-05	1.89926e-05	3.3663e-05	1.81077e-05	1.64856e-05	6.40561e-05	0.693725	0.207312	7.58627	2.00117e-06	1.06073e-06	6.6085e-07	8.91989e-07	2.29695e-07	6.94018e-07	0.0301418	0.0735251	0.0794636	67.7087	11705.6	4798.75	12651.1	-22.2913	0.0000000E+000	0.0000000E+000	0.0000000E+000	22.2913	0.0000000E+000	0.0000000E+000	0.0000000E+000	-22.2913	0.0000000E+000	0.0000000E+000	0.0000000E+000	-67.7087	0.0000000E+000	0.0000000E+000	0.0000000E+000	67.7087	0.409953	22.2913	-1.66588e-06
631.01	5.58571	17.872	18.7245	-72.6439	408.434	0.441104	-0.000188359	14.1127	12.8569	1	38	0.0048404	0.000258506	0	-0.000214627	1.34104	0.739505	26.4732	2.8492e-05	1.65172e-05	2.16328e-05	1.77898e-05	3.26289e-05	2.27793e-05	0.967075	0.349467	11.4157	1.53632e-06	1.22041e-06	6.65802e-07	1.12067e-06	3.79543e-07	6.08892e-07	0.0159315	0.0509743	0.0534059	72.6439	12856.9	4018.29	13470.2	-17.3561	0.0000000E+000	0.0000000E+000	0.0000000E+000	17.3561	0.0000000E+000	0.0000000E+000	0.0000000E+000	-17.3561	0.0000000E+000	0.0000000E+000	0.0000000E+000	-72.6439	0.0000000E+000	0.0000000E+000	0.0000000E+000	72.6439	0.31254	17.3561	2.13099e-07
398.089	7.11247	27.1616	28.0774	-75.3261	409.922	0.441108	-0.000566335	14.7192	13.7747	1	38	0.00479003	0.000170601	0	-0.000215175	1.15494	0.579955	26.0743	1.7306e-05	2.30636e-05	1.11786e-05	1.97264e-05	1.6588e-05	3.34018e-05	1.02419	0.309073	17.8127	1.12032e-06	7.88519e-07	4.92292e-07	5.3733e-07	5.50986e-07	4.08071e-07	0.00902211	0.0344542	0.0356159	75.3261	13774.7	3607.01	14239.1	-14.6739	0.0000000E+000	0.0000000E+000	0.0000000E+000	14.6739	0.0000000E+000	0.0000000E+000	0.0000000E+000	-14.6739	0.0000000E+000	0.0000000E+000	0.0000000E+000	-75.3261	0.0000000E+000	0.0000000E+000	0.0000000E+000	75.3261	0.261858	14.6739	-8.2841e-08
251.206	9.13997	41.6257	42.6173	-77.6158	411.659	0.441066	0.0012366	15.2205	14.5204	1	39	0.00486764	0.000114217	0	-0.000214543	1.10246	0.710104	25.3359	2.28132e-05	9.58776e-06	3.28959e-05	2.05928e-05	1.56444e-05	1.38093e-05	0.898048	0.418466	11.0788	7.12562e-07	2.72923e-07	1.13183e-07	4.70566e-07	4.34151e-07	1.43835e-07	0.00503237	0.0229187	0.0234646	77.6158	14520.4	3188.32	14866.3	-12.3842	0.0000000E+000	0.0000000E+000	0.0000000E+000	12.3842	0.0000000E+000	0.0000000E+000	0.0000000E+000	-12.3842	0.0000000E+000	0.0000000E+000	0.0000000E+000	-77.6158	0.0000000E+000	0.0000000E+000	0.0000000E+000	77.6158	0.219575	12.3842	3.67276e-07
158.529	13.0949	63.831	65.1604	-78.4066	413.151	0.441069	0.00127648	15.7282	15.093	1	39	0.00481069	7.38284e-05	0	-0.000214289	1.392	0.864947	25.2515	9.45609e-06	1.74165e-05	9.12173e-06	2.62688e-05	4.11814e-05	3.52635e-05	1.37023	0.454045	16.6801	4.75861e-07	2.99179e-07	1.93161e-07	4.65978e-07	4.76145e-07	2.40276e-07	0.00308415	0.0150336	0.0153467	78.4066	15093	3096.33	15407.3	-11.5934	0.0000000E+000	0.0000000E+000	0.0000000E+000	11.5934	0.0000000E+000	0.0000000E+000	0.0000000E+000	-11.5934	0.0000000E+000	0.0000000E+000	0.0000000E+000	-78.4066	0.0000000E+000	0.0000000E+000	0.0000000E+000	78.4066	0.20515	11.5934	1.47311e-07
99.9682	19.0378	96.2053	98.0709	-78.8065	414.624	0.441097	0.000747724	16.5485	15.9249	1	39	0.00474662	4.83999e-05	0	-0.000213861	2.67751	0.67293	26.2254	5.34308e-05	5.36962e-05	4.43169e-05	4.80235e-05	5.47611e-05	5.35129e-05	2.01836	0.835271	24.9086	4.0117e-07	2.71001e-07	2.2493e-07	5.05775e-07	5.34067e-07	3.38049e-07	0.00197942	0.0100027	0.0101967	78.8065	15924.9	3151.34	16233.7	-11.1935	0.0000000E+000	0.0000000E+000	0.0000000E+000	11.1935	0.0000000E+000	0.0000000E+000	0.0000000E+000	-11.1935	0.0000000E+000	0.0000000E+000	0.0000000E+000	-78.8065	0.0000000E+000	0.0000000E+000	0.0000000E+000	78.8065	0.197887	11.1935	2.0668e-07