File: Python/Data/GoldElectrode/240308/240308-CVEIS_PostActivation-Fe2Fe3_5mM-HCl1M-0RPM-Ag_AgCl_BLF8-Au_RDE-C15_01_CV_C15.mpt
EC-Lab ASCII FILE
Nb header lines : 60

Cyclic Voltammetry

Run on channel : 15 (SN 19485)
User :
Electrode connection : standard
Potential control : Ewe
Ewe ctrl range : min = -1.00 V, max = 1.00 V
Ewe,I filtering : <None>
Safety Limits :
	Do not start on E overload
Channel : Floating
Acquisition started on : 03/08/2024 17:26:24.349
Loaded Setting File :  C:\Data\mathias\GoldElectrode\240308-CVEIS_PostActivation-Fe2Fe3_5mM-HCl1M-0RPM-Ag_AgCl_BLF8-Au_RDE-C15.mps
Saved on :
	File : 240308-CVEIS_PostActivation-Fe2Fe3_5mM-HCl1M-0RPM-Ag_AgCl_BLF8-Au_RDE-C15_01_CV_C15.mpr
	Directory : C:\Data\mathias\GoldElectrode\
	Host : 192.168.0.1
Device : VMP-300 (SN 0826)
Address : USB
EC-Lab for windows v11.52 (software)
Internet server v11.52 (firmware)
Command interpretor v11.52 (firmware)
Electrode material :
Initial state :
Electrolyte :
Comments :
Cable : special
Electrode surface area : 0.001 cm²
Characteristic mass : 0.001 g
Equivalent Weight : 0.000 g/eq.
Density : 0.000 g/cm3
Volume (V) : 0.001 cm³
Record EIS quality indicators
Cycle Definition : Charge/Discharge alternance
Ei (V)              0.000
vs.                 Eoc
dE/dt               20.000
dE/dt unit          mV/s
E1 (V)              1.000
vs.                 Ref
Step percent        50
N                   10
E range min (V)     -1.000
E range max (V)     1.000
I Range             Auto
I Range min         Unset
I Range max         Unset
I Range init        Unset
Bandwidth           8
E2 (V)              0.000
vs.                 Ref
nc cycles           1
Reverse Scan        1
Ef (V)              0.000
vs.                 Eoc

mode	ox/red	error	control changes	counter inc.	time/s	control/V	Ewe/V	<I>/mA	cycle number	(Q-Qo)/C	I Range	step time/s	P/W
2	0	0	0	0	0.000000000000000E+000	0.452471	0.452586	-0.000912361	1	0.0000000E+000	43	0.000000000000000E+000	-4.12922e-07
2	1	0	1	0	1.703	0.48653	0.486233	0.113127	1	0.000140079	40	1.6592	5.50062e-05
2	1	0	1	0	3.3272	0.519014	0.518698	0.107271	1	0.000325423	40	3.2834	5.56411e-05
2	1	0	1	0	4.9515	0.551499	0.551493	0.0865826	1	0.000483856	40	4.9077	4.77497e-05
2	1	0	1	0	6.5757	0.583983	0.583638	0.0714527	1	0.000612372	40	6.5319	4.17025e-05
2	1	0	1	0	8.1999	0.616468	0.616078	0.0622536	1	0.000720997	40	8.1561	3.83531e-05
2	1	0	1	0	9.8241	0.648952	0.648671	0.0570568	1	0.000817761	40	9.7803	3.70111e-05
2	1	0	1	0	11.4484	0.681437	0.681182	0.0553521	1	0.000908617	40	11.4046	3.77049e-05
2	1	0	1	0	13.0726	0.713921	0.713711	0.0592212	1	0.00100081	40	13.0288	4.22668e-05
2	1	0	1	0	14.6968	0.746405	0.746013	0.0701058	1	0.00110515	40	14.653	5.22998e-05
2	1	0	1	0	16.321	0.77889	0.778469	0.0908172	1	0.00123429	40	16.2772	7.06984e-05
2	1	0	1	0	17.9452	0.811374	0.811055	0.131911	1	0.00141109	40	17.9014	0.000106987
2	1	0	1	0	19.5695	0.843859	0.843425	0.238772	1	0.00169724	40	19.5257	0.000201386
2	1	0	1	0	21.1937	0.876343	0.875918	0.541449	1	0.00229148	40	21.1499	0.000474265
2	1	0	1	0	22.8479	0.909427	0.909058	1.23421	1	0.003702	39	22.8041	0.00112197
2	1	0	1	0	24.4721	0.941912	0.941598	2.32781	1	0.00653542	39	24.4283	0.00219186
2	1	0	1	0	26.0964	0.974397	0.974181	3.9635	1	0.0115646	39	26.0526	0.00386117
2	1	0	1	0	27.6909	0.993737	0.993413	5.0913	1	0.0193911	39	27.6471	0.00505776
2	1	0	1	0	29.3151	0.961253	0.960842	2.89794	1	0.0257313	39	29.2713	0.00278446
2	1	0	1	0	30.9394	0.928768	0.928524	1.54042	1	0.0292452	39	30.8956	0.00143032
2	1	0	1	0	32.5636	0.896284	0.895938	0.729829	1	0.0310269	39	32.5198	0.000653881
2	1	0	1	0	34.2178	0.8632	0.86274	0.292315	1	0.0318276	40	34.174	0.000252192
2	1	0	1	0	35.842	0.830715	0.830283	0.10467	1	0.0321266	40	35.7982	8.69061e-05
2	1	0	1	0	37.4962	0.797631	0.797341	0.0286452	1	0.0322274	41	37.4524	2.284e-05
2	0	0	1	0	39.1804	0.763947	0.763318	-0.0131879	1	0.0322395	41	0.5047	-1.00666e-05
2	0	0	1	0	40.8046	0.731463	0.731088	-0.0525041	1	0.0321849	41	2.1289	-3.83851e-05
2	0	0	1	0	42.4289	0.698978	0.698559	-0.0690576	1	0.0320817	41	3.7532	-4.82408e-05
2	0	0	1	0	44.0531	0.666494	0.665884	-0.0605221	1	0.0319745	41	5.3774	-4.03007e-05
2	0	0	1	0	45.6773	0.634009	0.633858	-0.0537893	1	0.031884	41	7.0016	-3.40948e-05
2	0	0	1	0	47.3015	0.601525	0.601191	-0.0873149	1	0.0317793	41	8.6258	-5.2493e-05
2	0	0	1	0	48.9558	0.568439	0.56817	-0.228834	1	0.0315292	40	10.2801	-0.000130016
2	0	0	1	0	50.58	0.535956	0.535594	-0.27848	1	0.0310941	40	11.9043	-0.000149152
2	0	0	1	0	52.2042	0.503472	0.503237	-0.233217	1	0.0306745	40	13.5285	-0.000117364
2	0	0	1	0	53.8284	0.470987	0.470546	-0.223984	1	0.0303116	40	15.1527	-0.000105395
2	0	0	1	0	55.4526	0.438503	0.438257	-0.241659	1	0.0299296	40	16.7769	-0.000105909
2	0	0	1	0	57.0769	0.406018	0.405568	-0.215268	1	0.0295518	40	18.4012	-8.73058e-05
2	0	0	1	0	58.7011	0.373534	0.373439	-0.16946	1	0.0292388	40	20.0254	-6.3283e-05
2	0	0	1	0	60.3253	0.341049	0.340712	-0.133439	1	0.0289933	40	21.6496	-4.54643e-05
2	0	0	1	0	61.9495	0.308565	0.308441	-0.10887	1	0.0287963	40	23.2738	-3.35798e-05
2	0	0	1	0	63.5738	0.27608	0.275757	-0.0916264	1	0.0286324	40	24.8981	-2.52667e-05
2	0	0	1	0	65.198	0.243596	0.243573	-0.0784914	1	0.0284927	40	26.5223	-1.91184e-05
2	0	0	1	0	66.8222	0.211111	0.210864	-0.0682326	1	0.0283711	40	28.1465	-1.43878e-05
2	0	0	1	0	68.4464	0.178627	0.178236	-0.0604534	1	0.0282637	40	29.7707	-1.0775e-05
2	0	0	1	0	70.0707	0.146142	0.145892	-0.0548715	1	0.0281676	40	31.395	-8.00532e-06
2	0	0	1	0	71.6949	0.113658	0.113203	-0.050298	1	0.0280807	40	33.0192	-5.69387e-06
2	0	0	1	0	73.3191	0.0811735	0.0809729	-0.0467068	1	0.0280011	40	34.6434	-3.78198e-06
2	0	0	1	0	74.9733	0.0480893	0.0474725	-0.0436399	1	0.0279262	41	36.2976	-2.0717e-06
2	0	0	1	0	76.5975	0.0156048	0.0153398	-0.0409939	1	0.0278575	41	37.9218	-6.28839e-07
2	0	0	1	1	78.1924	0.0162545	0.0158972	-0.0377915	1	0.0277947	41	39.5167	-6.0078e-07
2	0	0	1	1	79.8167	0.048739	0.0481656	-0.0358857	1	0.0277349	41	41.141	-1.72846e-06
2	0	0	1	1	81.4409	0.0812235	0.0808677	-0.0344758	1	0.0276779	41	42.7652	-2.78798e-06
2	0	0	1	1	83.0651	0.113708	0.1135	-0.0333341	1	0.0276229	41	44.3894	-3.78343e-06
2	0	0	1	1	84.6893	0.146192	0.146029	-0.0321835	1	0.0275697	41	46.0136	-4.69974e-06
2	0	0	1	1	86.3136	0.178677	0.178235	-0.0310682	1	0.0275184	41	47.6379	-5.53745e-06
2	0	0	1	1	87.9378	0.211161	0.210725	-0.0301328	1	0.0274688	41	49.2621	-6.34974e-06
2	0	0	1	1	89.562	0.243646	0.243257	-0.0293595	1	0.0274205	41	50.8863	-7.14192e-06
2	0	0	1	1	91.1862	0.27613	0.275987	-0.0285118	1	0.0273735	41	52.5105	-7.86887e-06
2	0	0	1	1	92.8105	0.308615	0.308397	-0.0270568	1	0.0273282	41	54.1348	-8.34422e-06
2	0	0	1	1	94.4347	0.341099	0.341182	-0.0230761	1	0.027287	41	55.759	-7.87315e-06
2	0	0	1	1	96.0589	0.373584	0.373412	-0.0117089	1	0.0272571	41	57.3832	-4.37223e-06
2	1	0	1	1	97.7431	0.407268	0.406979	0.0237019	1	0.0272621	41	0.8796	9.64618e-06
2	1	0	1	1	99.3673	0.439752	0.439451	0.0937863	1	0.0273538	41	2.5038	4.12145e-05
2	1	0	1	1	100.984	0.472085	0.471689	0.153609	2	0.0275612	40	4.1205	7.24557e-05
2	1	0	1	1	102.608	0.504571	0.504332	0.15008	2	0.0278158	40	5.7448	7.56902e-05
2	1	0	1	1	104.232	0.537056	0.536711	0.1201	2	0.0280365	40	7.369	6.44588e-05
2	1	0	1	1	105.857	0.56954	0.569129	0.0951315	2	0.0282111	40	8.9932	5.41421e-05
2	1	0	1	1	107.481	0.602026	0.601619	0.079165	2	0.0283529	40	10.6175	4.76272e-05
2	1	0	1	1	109.105	0.634509	0.63419	0.0692136	2	0.0284735	40	12.2417	4.38946e-05
2	1	0	1	1	110.729	0.666993	0.666806	0.0633447	2	0.0285808	40	13.8659	4.22386e-05
2	1	0	1	1	112.354	0.699478	0.699094	0.0623545	2	0.0286822	40	15.4901	4.35916e-05
2	1	0	1	1	113.978	0.731962	0.731524	0.0682223	2	0.0287873	40	17.1143	4.99062e-05
2	1	0	1	1	115.602	0.764447	0.764291	0.0823385	2	0.0289083	40	18.7386	6.29305e-05
2	1	0	1	1	117.226	0.796931	0.796639	0.111492	2	0.0290632	40	20.3628	8.88187e-05
2	1	0	1	1	118.85	0.829416	0.829176	0.179095	2	0.0292904	40	21.987	0.000148501
2	1	0	1	1	120.475	0.8619	0.861633	0.385484	2	0.0297183	40	23.6112	0.000332146
2	1	0	1	1	122.099	0.894385	0.894047	0.945851	2	0.0307376	40	25.2355	0.000845635
2	1	0	1	1	123.753	0.927469	0.927212	1.99243	2	0.0331039	39	26.8897	0.00184741
2	1	0	1	1	125.377	0.959953	0.95946	3.54663	2	0.0375241	39	28.5139	0.00340285
2	1	0	1	1	127.002	0.992438	0.991946	5.6964	2	0.0449543	39	30.1381	0.00565052
2	1	0	1	1	128.594	0.975746	0.975371	4.13864	2	0.0534417	39	31.7302	0.00403671
2	1	0	1	1	130.218	0.943261	0.943006	2.28117	2	0.0585341	39	33.3544	0.00215116
2	1	0	1	1	131.842	0.910777	0.910561	1.14293	2	0.0612339	39	34.9786	0.00104071
2	1	0	1	1	133.466	0.878292	0.877874	0.498397	2	0.0625106	39	36.6029	0.00043753
2	1	0	1	1	135.121	0.845208	0.845028	0.182708	2	0.0630361	40	38.2571	0.000154393
2	1	0	1	1	136.745	0.812724	0.812294	0.0589617	2	0.0632164	40	39.8813	4.78942e-05
2	1	0	1	1	138.399	0.77964	0.779251	0.0047399	2	0.0632643	41	41.5355	3.69357e-06
2	0	0	1	1	140.083	0.745956	0.745669	-0.0405662	2	0.0632345	41	1.4793	-3.0249e-05
2	0	0	1	1	141.707	0.713471	0.713434	-0.0700227	2	0.0631404	41	3.1035	-4.99565e-05
2	0	0	1	1	143.332	0.680987	0.680557	-0.0678317	2	0.0630249	41	4.7277	-4.61633e-05
2	0	0	1	1	144.956	0.648502	0.648022	-0.0554121	2	0.0629255	41	6.352	-3.59083e-05
2	0	0	1	1	146.58	0.616018	0.615954	-0.0650224	2	0.0628334	41	7.9762	-4.00508e-05
2	0	0	1	1	148.234	0.582934	0.582542	-0.168133	2	0.0626609	40	9.6304	-9.79446e-05
2	0	0	1	1	149.858	0.550449	0.550272	-0.295654	2	0.0622561	40	11.2546	-0.00016269
2	0	0	1	1	151.483	0.517965	0.517727	-0.250686	2	0.0617999	40	12.8788	-0.000129787
2	0	0	1	1	153.107	0.48548	0.485184	-0.209312	2	0.0614349	40	14.5031	-0.000101555
2	0	0	1	1	154.731	0.452996	0.452691	-0.229099	2	0.0610819	40	16.1273	-0.000103711
2	0	0	1	1	156.355	0.420511	0.420274	-0.226225	2	0.0607041	40	17.7515	-9.50764e-05
2	0	0	1	1	157.98	0.388027	0.387517	-0.18403	2	0.0603683	40	19.3757	-7.13148e-05
2	0	0	1	1	159.604	0.355542	0.355255	-0.143338	2	0.060103	40	21	-5.09217e-05
2	0	0	1	1	161.228	0.323058	0.322929	-0.114773	2	0.0598938	40	22.6242	-3.70635e-05
2	0	0	1	1	162.852	0.290573	0.290223	-0.0950842	2	0.0597232	40	24.2484	-2.75956e-05
2	0	0	1	1	164.476	0.258089	0.257982	-0.0809185	2	0.0595796	40	25.8726	-2.08755e-05
2	0	0	1	1	166.101	0.225604	0.225437	-0.0700584	2	0.0594557	40	27.4969	-1.57937e-05
2	0	0	1	1	167.725	0.19312	0.192806	-0.0618643	2	0.0593467	40	29.1211	-1.19278e-05
2	0	0	1	1	169.349	0.160635	0.160204	-0.0551722	2	0.0592492	40	30.7453	-8.83881e-06
2	0	0	1	1	170.973	0.128151	0.12801	-0.0500707	2	0.0591608	40	32.3695	-6.40953e-06
2	0	0	1	1	172.598	0.0956683	0.0953679	-0.046626	2	0.0590797	40	33.9937	-4.44662e-06
2	0	0	1	1	174.252	0.0625824	0.062236	-0.0445981	2	0.0590032	41	35.648	-2.77561e-06
2	0	0	1	1	175.876	0.0300979	0.0302074	-0.0419418	2	0.058933	41	37.2722	-1.26695e-06
2	0	0	1	0	177.471	0.00176144	0.00143219	-0.0388646	2	0.0588679	41	38.8671	-5.56614e-08
2	0	0	1	0	179.095	0.0342459	0.0342072	-0.0367434	2	0.0588067	41	40.4913	-1.25689e-06
2	0	0	1	0	180.719	0.0667304	0.0667956	-0.0352291	2	0.0587484	41	42.1155	-2.35315e-06
2	0	0	1	0	182.344	0.0992149	0.0988411	-0.0339723	2	0.0586923	41	43.7398	-3.35786e-06
2	0	0	1	0	183.968	0.131699	0.131413	-0.0329535	2	0.058638	41	45.364	-4.33051e-06
2	0	0	1	0	185.592	0.164184	0.164229	-0.0320299	2	0.0585853	41	46.9882	-5.26023e-06
2	0	0	1	0	187.216	0.196668	0.196488	-0.0312904	2	0.0585339	41	48.6124	-6.1482e-06
2	0	0	1	0	188.841	0.229153	0.229075	-0.0305001	2	0.0584838	41	50.2367	-6.98681e-06
2	0	0	1	0	190.465	0.261637	0.261444	-0.0296735	2	0.0584349	41	51.8609	-7.75796e-06
2	0	0	1	0	192.089	0.294122	0.293609	-0.0284173	2	0.0583877	41	53.4851	-8.34355e-06
2	0	0	1	0	193.713	0.326606	0.326245	-0.0256853	2	0.0583434	41	55.1093	-8.37972e-06
2	0	0	1	0	195.337	0.359089	0.358811	-0.0185352	2	0.0583065	41	56.7335	-6.65064e-06
2	1	0	1	0	196.992	0.392175	0.39204	0.00345016	2	0.0582907	42	0.15	1.3526e-06
2	1	0	1	0	198.646	0.425259	0.425409	0.0597811	2	0.0583374	41	1.8042	2.54314e-05
2	1	0	0	0	199.947	0.451322	0.451254	0.12132	2	0.0584559	40	3.1051	5.47461e-05