File: Python/Data/GoldElectrode/240308/240308-CVEIS_Activation-0p5H2SO4-Ag_AgCl_BLF8-Au_RDE-80cycles-C15_02_PEIS_C15.mpt
EC-Lab ASCII FILE
Nb header lines : 66

Potentio Electrochemical Impedance Spectroscopy

Run on channel : 15 (SN 19485)
User :
Electrode connection : standard
Potential control : Ewe
Ewe ctrl range : min = -2.50 V, max = 2.50 V
Ewe,I filtering : 50 kHz
Safety Limits :
	Do not start on E overload
Channel : Floating
Acquisition started on : 03/08/2024 16:29:18.805
Loaded Setting File :  NONE
Saved on :
	File : 240308-CVEIS_Activation-0p5H2SO4-Ag_AgCl_BLF8-Au_RDE-80cycles-C15_02_PEIS_C15.mpr
	Directory : C:\Data\mathias\GoldElectrode\
	Host : 192.168.0.1
Device : VMP-300 (SN 0826)
Address : USB
EC-Lab for windows v11.52 (software)
Internet server v11.52 (firmware)
Command interpretor v11.52 (firmware)
Electrode material :
Initial state :
Electrolyte :
Comments :
Cable : special
Electrode surface area : 0.001 cm²
Characteristic mass : 0.001 g
Equivalent Weight : 0.000 g/eq.
Density : 0.000 g/cm3
Volume (V) : 0.001 cm³
Record EIS quality indicators
Cycle Definition : Charge/Discharge alternance
Mode                Single sine
E (V)               0.0000
vs.                 Eoc
tE (h:m:s)          0:00:0.0000
record              0
dI                  0.000
unit dI             mA
dt (s)              0.000
fi                  100.000
unit fi             kHz
ff                  100.000
unit ff             Hz
Nd                  10
Points              per decade
spacing             Logarithmic
Va (mV)             5.0
pw                  0.10
Na                  2
corr                0
E range min (V)     -2.500
E range max (V)     2.500
I Range             Auto
Bandwidth           8
nc cycles           1
goto Ns'            0
nr cycles           0
inc. cycle          0

freq/Hz	Re(Z)/Ohm	-Im(Z)/Ohm	|Z|/Ohm	Phase(Z)/deg	time/s	<Ewe>/V	<I>/mA	Cs/µF	Cp/µF	cycle number	I Range	|Ewe|/V	|I|/A	Ns	(Q-Qo)/mA.h	THD Ewe/%	NSD Ewe/%	NSR Ewe/%	|Ewe h2|/V	|Ewe h3|/V	|Ewe h4|/V	|Ewe h5|/V	|Ewe h6|/V	|Ewe h7|/V	THD I/%	NSD I/%	NSR I/%	|I h2|/A	|I h3|/A	|I h4|/A	|I h5|/A	|I h6|/A	|I h7|/A	Re(Y)/Ohm-1	Im(Y)/Ohm-1	|Y|/Ohm-1	Phase(Y)/deg	Re(C)/nF	Im(C)/nF	|C|/nF	Phase(C)/deg	Re(M)	Im(M)	|M|	Phase(M)/deg	Re(Permittivity)	Im(Permittivity)	|Permittivity|	Phase(Permittivity)/deg	Re(Resistivity)/Ohm.cm	Im(Resistivity)/Ohm.cm	|Resistivity|/Ohm.cm	Phase(Resistivity)/deg	Re(Conductivity)/mS/cm	Im(Conductivity)/mS/cm	|Conductivity|/mS/cm	Phase(Conductivity)/deg	Tan(Delta)	Loss Angle(Delta)/deg	dq/mA.h
100004	6.14005	0.674188	6.17695	-6.26608	362.765	0.39917	-0.0223026	2.3606	0.0281214	1	38	0.00481371	0.000779302	0	-8.08917e-06	1.63699	0.977028	31.4608	1.35233e-05	2.18961e-05	3.68635e-05	3.37388e-05	4.5226e-05	2.68879e-05	0.215698	0.129949	4.09077	8.33648e-07	6.52481e-07	6.63057e-07	8.09707e-07	6.06235e-07	1.84679e-07	0.160925	0.0176699	0.161892	6.26608	28.1214	256.111	257.65	-83.7339	0.0000000E+000	0.0000000E+000	0.0000000E+000	83.7339	0.0000000E+000	0.0000000E+000	0.0000000E+000	-83.7339	0.0000000E+000	0.0000000E+000	0.0000000E+000	-6.26608	0.0000000E+000	0.0000000E+000	0.0000000E+000	6.26608	9.10732	83.7339	-8.08917e-06
39814.1	6.23921	0.899042	6.30365	-8.19962	366.022	0.399138	-0.0111384	4.44635	0.0904438	1	38	0.00516244	0.000818961	0	-1.87432e-05	1.60492	0.811225	29.0901	2.28094e-05	3.50301e-05	3.72139e-05	2.83408e-05	1.82608e-05	4.22336e-05	0.158702	0.107142	3.90039	7.96636e-07	3.74466e-07	3.73546e-07	6.0173e-07	4.47799e-07	3.44265e-07	0.157016	0.0226254	0.158638	8.19962	90.4438	627.666	634.149	-81.8004	0.0000000E+000	0.0000000E+000	0.0000000E+000	81.8004	0.0000000E+000	0.0000000E+000	0.0000000E+000	-81.8004	0.0000000E+000	0.0000000E+000	0.0000000E+000	-8.19962	0.0000000E+000	0.0000000E+000	0.0000000E+000	8.19962	6.93985	81.8004	-3.43572e-06
15847.7	6.61587	1.7074	6.83263	-14.471	369.278	0.399167	-0.0106431	5.88191	0.367294	1	38	0.00513123	0.000750988	0	-2.73429e-05	2.18397	0.670142	30.7804	2.22437e-05	1.80739e-05	5.24385e-05	5.45376e-05	3.7941e-05	5.49598e-05	0.321639	0.0830154	4.26935	6.37811e-07	8.66817e-07	8.19906e-07	6.23914e-07	9.55572e-07	1.47376e-06	0.141713	0.0365729	0.146356	14.471	367.294	1423.2	1469.83	-75.529	0.0000000E+000	0.0000000E+000	0.0000000E+000	75.529	0.0000000E+000	0.0000000E+000	0.0000000E+000	-75.529	0.0000000E+000	0.0000000E+000	0.0000000E+000	-14.471	0.0000000E+000	0.0000000E+000	0.0000000E+000	14.471	3.87481	75.529	-2.69538e-06
6307.74	7.40874	3.39239	8.14848	-24.6026	372.654	0.399077	-0.00996723	7.43773	1.28914	1	38	0.00500433	0.000614142	0	-3.63715e-05	2.24107	0.288733	30.6	2.95962e-05	8.99355e-05	2.01453e-05	1.62103e-05	2.03973e-05	4.42172e-05	0.483622	0.121199	5.03733	3.61411e-07	2.4075e-06	5.8602e-07	1.03973e-06	7.7235e-07	7.36338e-07	0.111581	0.0510919	0.122722	24.6026	1289.14	2815.38	3096.49	-65.3974	0.0000000E+000	0.0000000E+000	0.0000000E+000	65.3974	0.0000000E+000	0.0000000E+000	0.0000000E+000	-65.3974	0.0000000E+000	0.0000000E+000	0.0000000E+000	-24.6026	0.0000000E+000	0.0000000E+000	0.0000000E+000	24.6026	2.18393	65.3974	-2.77549e-06
2512.41	9.03802	6.12459	10.9177	-34.1234	375.639	0.399029	-0.00968794	10.3431	3.25494	1	38	0.00545545	0.000499688	0	-4.44432e-05	1.4202	0.787517	27.7003	2.67745e-05	3.6044e-05	4.12907e-05	2.13978e-05	2.07207e-05	3.30474e-05	0.325124	0.213223	6.42354	6.20604e-07	8.2846e-07	5.66341e-08	7.45946e-07	6.17606e-07	6.64437e-07	0.0758246	0.0513824	0.0915943	34.1234	3254.94	4803.3	5802.27	-55.8766	0.0000000E+000	0.0000000E+000	0.0000000E+000	55.8766	0.0000000E+000	0.0000000E+000	0.0000000E+000	-55.8766	0.0000000E+000	0.0000000E+000	0.0000000E+000	-34.1234	0.0000000E+000	0.0000000E+000	0.0000000E+000	34.1234	1.47569	55.8766	-2.19259e-06
999.682	11.1831	11.4998	16.0408	-45.7999	378.613	0.399041	-0.00871974	13.8442	7.11537	1	38	0.00531607	0.00033141	0	-5.14404e-05	1.1689	0.981652	29.0112	1.99775e-05	2.24411e-05	2.76546e-05	1.52024e-05	2.02879e-05	3.81699e-05	0.667959	0.20999	9.58773	1.54039e-06	4.79889e-07	1.0519e-06	6.7136e-07	3.83341e-07	2.85661e-07	0.0434621	0.0446929	0.0623411	45.7999	7115.37	6919.41	9925.05	-44.2001	0.0000000E+000	0.0000000E+000	0.0000000E+000	44.2001	0.0000000E+000	0.0000000E+000	0.0000000E+000	-44.2001	0.0000000E+000	0.0000000E+000	0.0000000E+000	-45.7999	0.0000000E+000	0.0000000E+000	0.0000000E+000	45.7999	0.972461	44.2001	-1.60775e-06
398.089	13.9115	23.8134	27.5791	-59.7071	381.589	0.399045	-0.00758024	16.7888	12.517	1	38	0.00524042	0.000190014	0	-5.73744e-05	1.21708	0.919415	29.6708	2.42625e-05	1.7957e-05	1.60463e-05	2.70539e-05	3.41002e-05	2.30931e-05	0.980191	0.449694	16.7978	5.15412e-07	8.44202e-07	6.20134e-07	7.97528e-07	9.70752e-07	5.29915e-07	0.01829	0.0313084	0.0362593	59.7071	12517	7312.28	14496.4	-30.2929	0.0000000E+000	0.0000000E+000	0.0000000E+000	30.2929	0.0000000E+000	0.0000000E+000	0.0000000E+000	-30.2929	0.0000000E+000	0.0000000E+000	0.0000000E+000	-59.7071	0.0000000E+000	0.0000000E+000	0.0000000E+000	59.7071	0.584187	30.2929	-1.45645e-06
158.529	18.29	53.3103	56.3606	-71.0637	384.819	0.399045	-0.000964354	18.8322	16.8489	1	39	0.00528421	9.37572e-05	0	-5.87597e-05	1.11128	0.885949	27.499	2.63581e-05	2.41933e-05	1.40514e-05	1.96106e-05	2.90068e-05	1.23412e-05	1.00732	0.548191	15.4562	5.15711e-07	4.93536e-07	1.64638e-07	4.69403e-07	2.6483e-07	1.57012e-07	0.00575787	0.0167826	0.0177429	71.0637	16848.9	5780.61	17813	-18.9363	0.0000000E+000	0.0000000E+000	0.0000000E+000	18.9363	0.0000000E+000	0.0000000E+000	0.0000000E+000	-18.9363	0.0000000E+000	0.0000000E+000	0.0000000E+000	-71.0637	0.0000000E+000	0.0000000E+000	0.0000000E+000	71.0637	0.343085	18.9363	-7.35509e-08
79433.3	6.18449	0.678258	6.22158	-6.25866	388.551	0.399158	-0.0077478	2.95408	0.0351085	2	38	0.00514276	0.000826602	0	-6.39288e-05	1.42648	1.00425	30.0797	3.76321e-05	1.31157e-05	4.1124e-05	3.50858e-05	1.92324e-05	2.06883e-05	0.163723	0.159797	3.77754	5.07306e-07	2.88362e-07	4.0931e-07	7.88746e-07	1.52709e-07	7.48826e-07	0.159773	0.0175224	0.160731	6.25866	35.1085	320.126	322.046	-83.7413	0.0000000E+000	0.0000000E+000	0.0000000E+000	83.7413	0.0000000E+000	0.0000000E+000	0.0000000E+000	-83.7413	0.0000000E+000	0.0000000E+000	0.0000000E+000	-6.25866	0.0000000E+000	0.0000000E+000	0.0000000E+000	6.25866	9.1182	83.7413	-2.33897e-06
31621.1	6.31953	1.07748	6.41073	-9.6759	391.808	0.399137	-0.0079582	4.67124	0.131959	2	38	0.00516605	0.000805844	0	-6.9337e-05	1.73695	0.801363	29.5451	5.45489e-05	2.63195e-05	4.43199e-05	2.90789e-05	3.00268e-05	1.43817e-05	0.260062	0.125709	3.8198	9.61031e-07	8.87662e-07	4.45965e-07	7.08033e-07	1.18604e-06	6.28366e-07	0.153769	0.0262177	0.155988	9.6759	131.959	773.949	785.118	-80.3241	0.0000000E+000	0.0000000E+000	0.0000000E+000	80.3241	0.0000000E+000	0.0000000E+000	0.0000000E+000	-80.3241	0.0000000E+000	0.0000000E+000	0.0000000E+000	-9.6759	0.0000000E+000	0.0000000E+000	0.0000000E+000	9.6759	5.86509	80.3241	-1.11492e-06
12590.9	6.76291	2.06546	7.07128	-16.9832	395.064	0.399141	-0.00771243	6.11991	0.522135	2	38	0.00522992	0.0007396	0	-7.72277e-05	1.38886	1.78669	29.2878	1.06406e-05	3.53045e-05	2.94762e-05	1.80732e-05	2.02458e-05	4.41082e-05	0.285059	0.26792	4.2659	1.20139e-06	4.89026e-07	1.10712e-06	6.38313e-07	3.02025e-07	8.85213e-07	0.13525	0.0413067	0.141417	16.9832	522.135	1709.62	1787.57	-73.0168	0.0000000E+000	0.0000000E+000	0.0000000E+000	73.0168	0.0000000E+000	0.0000000E+000	0.0000000E+000	-73.0168	0.0000000E+000	0.0000000E+000	0.0000000E+000	-16.9832	0.0000000E+000	0.0000000E+000	0.0000000E+000	16.9832	3.27428	73.0168	-1.90009e-06
5011.6	7.73967	4.00413	8.71411	-27.3549	398.384	0.399019	-0.00759512	7.93113	1.67458	2	38	0.00530131	0.00060836	0	-8.44404e-05	1.3867	0.616158	29.5182	2.25699e-05	3.35831e-05	2.77389e-05	2.42916e-05	2.26952e-05	3.18721e-05	0.253636	0.146805	5.21321	9.32039e-07	6.9619e-07	6.1559e-07	2.38738e-07	5.6463e-07	2.7913e-07	0.101924	0.0527306	0.114756	27.3549	1674.58	3236.83	3644.35	-62.6451	0.0000000E+000	0.0000000E+000	0.0000000E+000	62.6451	0.0000000E+000	0.0000000E+000	0.0000000E+000	-62.6451	0.0000000E+000	0.0000000E+000	0.0000000E+000	-27.3549	0.0000000E+000	0.0000000E+000	0.0000000E+000	27.3549	1.93292	62.6451	-1.64442e-06
1995.64	9.57176	7.23826	12.0005	-37.0969	401.356	0.399027	-0.00632901	11.018	4.00845	2	38	0.0054423	0.000453508	0	-8.87944e-05	1.60378	2.03501	28.5812	3.55699e-05	3.12736e-05	2.75532e-05	4.88771e-05	2.02909e-05	3.71191e-05	0.395503	0.489102	7.04131	1.02144e-06	6.17655e-07	6.20234e-07	1.07266e-06	3.38325e-07	2.50157e-07	0.0664655	0.0502618	0.0833301	37.0969	4008.45	5300.72	6645.7	-52.9031	0.0000000E+000	0.0000000E+000	0.0000000E+000	52.9031	0.0000000E+000	0.0000000E+000	0.0000000E+000	-52.9031	0.0000000E+000	0.0000000E+000	0.0000000E+000	-37.0969	0.0000000E+000	0.0000000E+000	0.0000000E+000	37.0969	1.32238	52.9031	-8.77841e-07
794.239	11.807	13.839	18.1913	-49.5301	404.33	0.399002	-0.00554701	14.4799	8.38002	2	38	0.00527031	0.000289716	0	-9.38977e-05	1.33719	1.0114	28.263	4.06008e-05	2.80596e-05	1.69621e-05	1.59518e-05	1.58794e-05	2.43838e-05	0.878057	0.363929	10.9518	1.93967e-06	8.41332e-07	6.96265e-07	1.12539e-06	2.76236e-07	1.78333e-07	0.0356791	0.0418193	0.0549714	49.5301	8380.02	7149.61	11015.5	-40.4699	0.0000000E+000	0.0000000E+000	0.0000000E+000	40.4699	0.0000000E+000	0.0000000E+000	0.0000000E+000	-40.4699	0.0000000E+000	0.0000000E+000	0.0000000E+000	-49.5301	0.0000000E+000	0.0000000E+000	0.0000000E+000	49.5301	0.853174	40.4699	-1.38944e-06
316.316	14.8933	29.3662	32.9269	-63.1078	407.555	0.399027	-0.000686834	17.1337	13.6284	2	39	0.00539427	0.000163826	0	-9.68216e-05	1.26661	0.757634	26.6964	1.09667e-05	2.77889e-05	2.64697e-05	1.52095e-05	2.52763e-05	4.15476e-05	0.819109	0.196835	8.33554	9.14454e-07	3.10498e-07	3.83902e-07	6.06084e-07	2.75727e-07	4.70567e-07	0.0137369	0.027086	0.0303703	63.1078	13628.4	6911.74	15280.9	-26.8922	0.0000000E+000	0.0000000E+000	0.0000000E+000	26.8922	0.0000000E+000	0.0000000E+000	0.0000000E+000	-26.8922	0.0000000E+000	0.0000000E+000	0.0000000E+000	-63.1078	0.0000000E+000	0.0000000E+000	0.0000000E+000	63.1078	0.507158	26.8922	-5.17386e-07
125.927	19.7234	65.5728	68.4748	-73.2594	410.532	0.399037	-0.000572959	19.2743	17.6752	2	39	0.00523748	7.64877e-05	0	-9.73367e-05	1.67862	1.01672	27.7615	3.54345e-05	3.1115e-05	2.84463e-05	2.80025e-05	4.09107e-05	2.77068e-05	1.07114	0.52443	17.7776	4.6085e-07	3.47577e-07	2.96241e-07	2.91416e-07	1.58759e-07	2.67012e-07	0.00420649	0.013985	0.0146039	73.2594	17675.2	5316.46	18457.4	-16.7406	0.0000000E+000	0.0000000E+000	0.0000000E+000	16.7406	0.0000000E+000	0.0000000E+000	0.0000000E+000	-16.7406	0.0000000E+000	0.0000000E+000	0.0000000E+000	-73.2594	0.0000000E+000	0.0000000E+000	0.0000000E+000	73.2594	0.300787	16.7406	-1.9787e-07
99.9682	21.9411	81.0154	83.9339	-74.8463	411.263	0.399065	-0.000667267	19.6513	18.3084	2	39	0.0052323	6.23384e-05	0	-9.74387e-05	1.48261	0.817895	27.0964	2.44125e-05	1.02402e-05	2.16205e-05	2.0067e-05	5.12931e-05	4.10028e-05	0.984208	0.649517	21.8716	3.61639e-07	2.21951e-07	2.01434e-07	1.23526e-07	2.68868e-07	2.4579e-07	0.00311446	0.0114999	0.0119141	74.8463	18308.4	4958.4	18968	-15.1537	0.0000000E+000	0.0000000E+000	0.0000000E+000	15.1537	0.0000000E+000	0.0000000E+000	0.0000000E+000	-15.1537	0.0000000E+000	0.0000000E+000	0.0000000E+000	-74.8463	0.0000000E+000	0.0000000E+000	0.0000000E+000	74.8463	0.270826	15.1537	-1.0202e-07