File: Python/Data/GoldElectrode/240308/240308-CV_Activation-0p5H2SO4-Ag_AgCl_BLF8-Au_RDE-Initial2-C15_C15.mpt
EC-Lab ASCII FILE
Nb header lines : 59

Cyclic Voltammetry

Run on channel : 15 (SN 19485)
User :
Electrode connection : standard
Potential control : Ewe
Ewe ctrl range : min = -2.50 V, max = 2.50 V
Ewe,I filtering : <None>
Safety Limits :
	Do not start on E overload
Channel : Floating
Acquisition started on : 03/08/2024 16:11:42.125
Loaded Setting File :  NONE
Saved on :
	File : 240308-CV_Activation-0p5H2SO4-Ag_AgCl_BLF8-Au_RDE-Initial2-C15_C15.mpr
	Directory : C:\Data\mathias\GoldElectrode\
	Host : 192.168.0.1
Device : VMP-300 (SN 0826)
Address : USB
EC-Lab for windows v11.52 (software)
Internet server v11.52 (firmware)
Command interpretor v11.52 (firmware)
Electrode material :
Initial state :
Electrolyte :
Comments :
Cable : special
Electrode surface area : 0.001 cm²
Characteristic mass : 0.001 g
Equivalent Weight : 0.000 g/eq.
Density : 0.000 g/cm3
Volume (V) : 0.001 cm³
Cycle Definition : Charge/Discharge alternance
Ei (V)              0.000
vs.                 Eoc
dE/dt               20.000
dE/dt unit          mV/s
E1 (V)              1.500
vs.                 Ref
Step percent        50
N                   10
E range min (V)     -2.500
E range max (V)     2.500
I Range             Auto
I Range min         Unset
I Range max         Unset
I Range init        Unset
Bandwidth           8
E2 (V)              -0.300
vs.                 Ref
nc cycles           1
Reverse Scan        1
Ef (V)              0.000
vs.                 Eoc

mode	ox/red	error	control changes	counter inc.	time/s	control/V	Ewe/V	<I>/mA	cycle number	(Q-Qo)/C	I Range	step time/s	P/W
2	1	0	0	0	0.000000000000000E+000	0.405302	0.403665	8.44521e-05	1	0.0000000E+000	43	0.000000000000000E+000	3.40903e-08
2	1	0	1	0	3.0561	0.466421	0.466271	0.00106929	1	2.39353e-06	42	3.0286	4.9858e-07
2	1	0	1	0	6.1045	0.52739	0.527489	0.00127746	1	6.08383e-06	42	6.077	6.73846e-07
2	1	0	1	0	9.1529	0.58836	0.588271	0.00127551	1	1.00375e-05	42	9.1254	7.50344e-07
2	1	0	1	0	12.2015	0.649329	0.649142	0.00119879	1	1.38211e-05	42	12.174	7.78188e-07
2	1	0	1	0	15.2499	0.710299	0.709858	0.00121962	1	1.74942e-05	42	15.2224	8.65757e-07
2	1	0	1	0	18.2984	0.771269	0.771055	0.00116183	1	2.12239e-05	42	18.2709	8.95831e-07
2	1	0	1	0	21.3469	0.832237	0.832231	0.00101157	1	2.45265e-05	42	21.3194	8.41859e-07
2	1	0	1	0	24.3953	0.893207	0.892502	0.000949452	1	2.75251e-05	42	24.3678	8.47389e-07
2	1	0	1	0	27.4438	0.954175	0.953915	0.00122728	1	3.06606e-05	42	27.4163	1.17072e-06
2	1	0	1	0	30.4923	1.01515	1.01469	0.00490245	1	3.81933e-05	42	30.4648	4.97446e-06
2	1	0	1	0	33.5707	1.07671	1.07644	0.0166435	1	7.09832e-05	41	33.5432	1.79157e-05
2	1	0	1	0	36.6192	1.13768	1.13724	0.0215419	1	0.000132235	41	36.5917	2.44983e-05
2	1	0	1	0	39.6677	1.19865	1.19868	0.0196315	1	0.000195897	41	39.6402	2.3532e-05
2	1	0	1	0	42.7161	1.25962	1.25927	0.0160113	1	0.000250716	41	42.6886	2.01625e-05
2	1	0	1	0	45.7647	1.32059	1.32012	0.0136666	1	0.000294854	41	45.7372	1.80416e-05
2	1	0	1	0	48.8131	1.38156	1.38103	0.0128842	1	0.000335815	41	48.7856	1.77936e-05
2	1	0	1	0	51.8615	1.44253	1.44205	0.012532	1	0.000373864	41	51.834	1.80717e-05
2	1	0	1	0	54.8606	1.4974	1.49691	0.0134168	1	0.000414173	41	54.8331	2.00837e-05
2	1	0	1	0	57.9391	1.43583	1.43524	0.00334678	1	0.000435519	42	57.9116	4.80342e-06
2	1	0	1	0	60.9875	1.37487	1.37446	0.00113411	1	0.000441676	42	60.96	1.55879e-06
2	1	0	1	0	64.1409	1.3118	1.31132	0.000256234	1	0.000443847	43	64.1134	3.36004e-07
2	1	0	1	0	67.2344	1.24993	1.24935	6.12534e-05	1	0.000444474	43	67.2069	7.65269e-08
2	0	0	1	0	70.2829	1.18896	1.18855	-0.000157682	1	0.00044433	43	2.149	-1.87413e-07
2	0	0	1	0	73.3313	1.12799	1.12753	-0.000489604	1	0.000443404	43	5.1974	-5.52043e-07
2	0	0	1	0	76.4098	1.06642	1.0661	-0.00138395	1	0.000440776	42	8.2759	-1.47543e-06
2	0	0	1	0	79.4583	1.00545	1.00518	-0.00522993	1	0.000432293	42	11.3244	-5.25702e-06
2	0	0	1	0	82.5367	0.943881	0.943707	-0.0196897	1	0.00039074	41	14.4028	-1.85814e-05
2	0	0	1	0	85.5852	0.882912	0.882845	-0.0054765	1	0.000358999	41	17.4513	-4.8349e-06
2	0	0	1	0	88.6337	0.821943	0.821859	-0.0090237	1	0.000338587	41	20.4998	-7.41621e-06
2	0	0	1	0	91.6821	0.760973	0.760626	-0.00772123	1	0.000308681	41	23.5482	-5.87297e-06
2	0	0	1	0	94.7307	0.700004	0.699901	-0.00452196	1	0.000289507	41	26.5968	-3.16492e-06
2	0	0	1	0	97.8091	0.638435	0.638169	-0.00370329	1	0.00027638	42	29.6752	-2.36333e-06
2	0	0	1	0	100.857	0.577465	0.57762	-0.00299383	1	0.00026627	42	32.7236	-1.7293e-06
2	0	0	1	0	103.906	0.516496	0.516193	-0.00261647	1	0.000257767	42	35.7722	-1.3506e-06
2	0	0	1	0	106.954	0.455526	0.455107	-0.00256115	1	0.00024994	42	38.8206	-1.1656e-06
2	0	0	1	0	110.003	0.394557	0.39425	-0.00241313	1	0.000242225	42	41.869	-9.51374e-07
2	0	0	1	0	113.051	0.333588	0.333596	-0.00197655	1	0.000235542	42	44.9176	-6.59368e-07
2	0	0	1	0	116.1	0.272618	0.27237	-0.00170695	1	0.000229949	42	47.966	-4.64924e-07
2	0	0	1	0	119.148	0.211649	0.211066	-0.00146553	1	0.000225118	42	51.0144	-3.09323e-07
2	0	0	1	0	122.197	0.150679	0.150375	-0.00139591	1	0.000220811	42	54.063	-2.0991e-07
2	0	0	1	0	125.245	0.08971	0.0892859	-0.00183301	1	0.000216103	42	57.1114	-1.63662e-07
2	0	0	1	0	128.294	0.0287388	0.0284123	-0.00401152	1	0.000207885	42	60.1599	-1.13976e-07
2	0	0	1	0	131.342	-0.0322289	-0.0326992	-0.0096713	1	0.000187847	42	63.2084	3.16244e-07
2	0	0	1	0	134.421	-0.093798	-0.0942166	-0.0138931	1	0.00014957	41	66.2868	1.30896e-06
2	0	0	1	0	137.469	-0.154769	-0.155246	-0.013154	1	0.000107065	41	69.3353	2.0421e-06
2	0	0	1	0	140.518	-0.215737	-0.215858	-0.0121911	1	6.82456e-05	41	72.3838	2.63154e-06
2	0	0	1	0	143.566	-0.276706	-0.277318	-0.0124729	1	3.07266e-05	41	75.4322	3.45897e-06
2	0	0	1	1	146.555	-0.263513	-0.263422	-0.010014	1	-4.42486e-06	41	78.4212	2.63792e-06
2	0	0	1	1	149.604	-0.202544	-0.202552	-0.00761458	1	-3.07573e-05	41	81.4697	1.54235e-06
2	0	0	1	1	152.652	-0.141574	-0.141772	-0.00579622	1	-5.08307e-05	41	84.5182	8.2174e-07
2	0	0	1	1	155.73	-0.0800049	-0.0803253	-0.00367646	1	-6.52781e-05	42	87.5966	2.95313e-07
2	0	0	1	1	158.779	-0.0190364	-0.0193047	-0.00163924	1	-7.32429e-05	42	90.6451	3.16451e-08
2	0	0	1	1	161.842	0.0422338	0.0418699	-0.000500659	1	-7.61585e-05	42	93.7086	-2.09626e-08
2	1	0	1	1	164.906	0.103503	0.103074	6.5235e-05	1	-7.65726e-05	43	0.6496	6.72401e-09
2	1	0	1	1	167.954	0.164472	0.164297	0.000247676	1	-7.60568e-05	43	3.6981	4.06926e-08
2	1	0	1	1	171.003	0.225442	0.225252	0.000447256	1	-7.50714e-05	43	6.7466	1.00745e-07
2	1	0	1	1	174.051	0.286411	0.286083	0.000826099	1	-7.2951e-05	43	9.795	2.36333e-07
2	1	0	1	1	177.1	0.347381	0.347142	0.000626313	1	-7.08556e-05	43	12.8436	2.1742e-07
2	1	0	1	1	180.073	0.406851	0.406326	0.000896278	2	-6.86936e-05	43	15.817	3.64181e-07
2	1	0	1	1	183.152	0.46842	0.468178	0.00135218	2	-6.51726e-05	42	18.8954	6.33064e-07
2	1	0	1	1	186.2	0.529389	0.529162	0.00134925	2	-6.09628e-05	42	21.944	7.13972e-07
2	1	0	1	1	189.249	0.590359	0.589913	0.00123459	2	-5.70258e-05	42	24.9924	7.283e-07
2	1	0	1	1	192.297	0.651328	0.651033	0.00112824	2	-5.34239e-05	42	28.0409	7.34523e-07
2	1	0	1	1	195.346	0.712298	0.712129	0.00110549	2	-5.00345e-05	42	31.0894	7.87252e-07
2	1	0	1	1	198.394	0.773267	0.773028	0.00101209	2	-4.67143e-05	42	34.1378	7.8237e-07
2	1	0	1	1	201.443	0.834236	0.834033	0.00086089	2	-4.38839e-05	42	37.1864	7.1801e-07
2	1	0	1	1	204.491	0.895206	0.894895	0.00081354	2	-4.13277e-05	42	40.2348	7.28033e-07
2	1	0	1	1	207.539	0.956175	0.955961	0.00123607	2	-3.84797e-05	42	43.2832	1.18163e-06
2	1	0	1	1	210.588	1.01714	1.01676	0.0071866	2	-2.875e-05	42	46.3318	7.30705e-06
2	1	0	1	1	213.666	1.07871	1.0785	0.0226779	2	1.90892e-05	41	49.4102	2.44582e-05
2	1	0	1	1	216.715	1.13968	1.13938	0.0228923	2	9.1939e-05	41	52.4586	2.6083e-05
2	1	0	1	1	219.763	1.20065	1.20033	0.0197273	2	0.000156411	41	55.5072	2.36793e-05
2	1	0	1	1	222.812	1.26162	1.26121	0.0176449	2	0.000214173	41	58.5556	2.22538e-05
2	1	0	1	1	225.86	1.32259	1.32234	0.0139581	2	0.000261889	41	61.604	1.84572e-05
2	1	0	1	1	228.909	1.38356	1.3832	0.0120462	2	0.000301363	41	64.6526	1.66623e-05
2	1	0	1	1	231.957	1.44453	1.44438	0.0118604	2	0.00033715	41	67.701	1.71309e-05
2	1	0	1	1	234.956	1.4954	1.49487	0.0120819	2	0.000375418	41	70.7	1.80608e-05
2	1	0	1	1	238.035	1.43384	1.43325	0.00312785	2	0.000394956	42	73.7786	4.48301e-06
2	1	0	1	1	241.083	1.37287	1.37254	0.00108657	2	0.000400773	42	76.827	1.49137e-06
2	1	0	1	1	244.207	1.3104	1.31017	0.000443165	2	0.000402869	42	79.9504	5.80622e-07
2	1	0	1	1	247.33	1.24793	1.24763	6.47243e-05	2	0.000403508	43	83.0738	8.07519e-08
2	0	0	1	1	250.379	1.18696	1.18621	-0.000158475	2	0.00040337	43	2.099	-1.87984e-07
2	0	0	1	1	253.427	1.12599	1.12585	-0.000495571	2	0.000402438	43	5.1474	-5.57936e-07
2	0	0	1	1	256.505	1.06442	1.06407	-0.00143103	2	0.000399743	42	8.2258	-1.52272e-06
2	0	0	1	1	259.554	1.00345	1.00305	-0.00563333	2	0.00039077	42	11.2744	-5.6505e-06
2	0	0	1	1	262.632	0.941882	0.941266	-0.0193878	2	0.000346327	41	14.3528	-1.82491e-05
2	0	0	1	1	265.681	0.880913	0.880469	-0.00543029	2	0.000316018	41	17.4012	-4.7812e-06
2	0	0	1	1	268.729	0.819944	0.8197	-0.0101169	2	0.00029346	41	20.4498	-8.29282e-06
2	0	0	1	1	271.778	0.758974	0.758327	-0.00759572	2	0.000262099	41	23.4982	-5.76004e-06
2	0	0	1	1	274.826	0.698005	0.6976	-0.00457691	2	0.000242877	41	26.5466	-3.19285e-06
2	0	0	1	1	277.905	0.636436	0.635941	-0.00378166	2	0.000229514	42	29.6252	-2.40492e-06
2	0	0	1	1	280.953	0.575466	0.574933	-0.00304702	2	0.000219191	42	32.6736	-1.75183e-06
2	0	0	1	1	284.002	0.514497	0.513948	-0.00266736	2	0.00021054	42	35.722	-1.37089e-06
2	0	0	1	1	287.05	0.453527	0.453308	-0.00260032	2	0.000202586	42	38.7706	-1.17874e-06
2	0	0	1	1	290.099	0.392558	0.391957	-0.00241812	2	0.000194785	42	41.819	-9.47802e-07
2	0	0	1	1	293.147	0.331589	0.331442	-0.00197242	2	0.000188102	42	44.8674	-6.53742e-07
2	0	0	1	1	296.196	0.270619	0.270168	-0.0016834	2	0.000182549	42	47.916	-4.54801e-07
2	0	0	1	1	299.244	0.20965	0.209358	-0.00145146	2	0.000177787	42	50.9644	-3.03874e-07
2	0	0	1	1	302.293	0.14868	0.148134	-0.00140636	2	0.000173502	42	54.0129	-2.08329e-07
2	0	0	1	1	305.341	0.087711	0.0873001	-0.00204631	2	0.000168525	42	57.0614	-1.78643e-07
2	0	0	1	1	308.389	0.0267415	0.0262401	-0.00489436	2	0.000158815	42	60.1098	-1.28429e-07
2	0	0	1	1	311.468	-0.034828	-0.0349499	-0.0107937	2	0.000134329	41	63.1883	3.77238e-07
2	0	0	1	1	314.516	-0.095797	-0.096052	-0.0139836	2	9.30624e-05	41	66.2368	1.34315e-06
2	0	0	1	1	317.565	-0.156766	-0.156888	-0.01269	2	5.11017e-05	41	69.2852	1.99091e-06
2	0	0	1	1	320.613	-0.217736	-0.218196	-0.0120525	2	1.30476e-05	41	72.3338	2.62981e-06
2	0	0	1	1	323.662	-0.278705	-0.279148	-0.0127743	2	-2.4849e-05	41	75.3822	3.56592e-06
2	0	0	1	0	326.651	-0.261514	-0.261881	-0.0101975	2	-6.07506e-05	41	78.3712	2.67053e-06
2	0	0	1	0	329.699	-0.200545	-0.200762	-0.00778975	2	-8.75185e-05	41	81.4196	1.56389e-06
2	0	0	1	0	332.748	-0.139575	-0.139634	-0.00606057	2	-0.000108102	41	84.4682	8.46262e-07
2	0	0	1	0	335.826	-0.0780059	-0.0780967	-0.0039684	2	-0.000123331	42	87.5466	3.09919e-07
2	0	0	1	0	338.875	-0.0170365	-0.0171552	-0.00185833	2	-0.000132133	42	90.595	3.188e-08
2	0	0	1	0	341.923	0.0439329	0.0434713	-0.000512303	2	-0.000135502	42	93.6436	-2.22705e-08
2	1	0	1	0	345.002	0.105502	0.105277	6.10542e-05	2	-0.000136035	43	0.4998	6.42758e-09
2	1	0	1	0	348.05	0.166471	0.166189	0.000250727	2	-0.000135508	43	3.5482	4.16682e-08
2	1	0	1	0	351.099	0.227441	0.227268	0.000443168	2	-0.000134518	43	6.5968	1.00718e-07
2	1	0	1	0	354.147	0.28841	0.288073	0.000859836	2	-0.000132365	43	9.6452	2.47695e-07
2	1	0	1	0	357.195	0.34938	0.34912	0.000622115	2	-0.00013025	43	12.6936	2.17192e-07
2	1	0	0	0	359.933	0.404202	0.403111	0.000877528	2	-0.00012828	43	15.4309	3.53741e-07