File: Python/Data/GoldElectrode/240308/240308-CV_Activation-0p5H2SO4-Ag_AgCl_BLF8-Au_RDE-Initial-C15_C15.mpt
EC-Lab ASCII FILE
Nb header lines : 59

Cyclic Voltammetry

Run on channel : 15 (SN 19485)
User :
Electrode connection : standard
Potential control : Ewe
Ewe ctrl range : min = -2.50 V, max = 2.50 V
Ewe,I filtering : <None>
Safety Limits :
	Do not start on E overload
Channel : Floating
Acquisition started on : 03/08/2024 16:03:14.034
Loaded Setting File :  C:\Data\mathias\RDE-RPM-variation\240219-CV-EIS-Fe2Fe3_5mM-HCl1M-0RPM-Ag_AgCl_BLF8-GC-RDE_01_CV_C15.mpr
Saved on :
	File : 240308-CV_Activation-0p5H2SO4-Ag_AgCl_BLF8-Au_RDE-Initial-C15_C15.mpr
	Directory : C:\Data\mathias\GoldElectrode\
	Host : 192.168.0.1
Device : VMP-300 (SN 0826)
Address : USB
EC-Lab for windows v11.52 (software)
Internet server v11.52 (firmware)
Command interpretor v11.52 (firmware)
Electrode material :
Initial state :
Electrolyte :
Comments :
Cable : special
Electrode surface area : 0.001 cm²
Characteristic mass : 0.001 g
Equivalent Weight : 0.000 g/eq.
Density : 0.000 g/cm3
Volume (V) : 0.001 cm³
Cycle Definition : Charge/Discharge alternance
Ei (V)              0.000
vs.                 Eoc
dE/dt               20.000
dE/dt unit          mV/s
E1 (V)              1.500
vs.                 Ref
Step percent        50
N                   10
E range min (V)     -2.500
E range max (V)     2.500
I Range             Auto
I Range min         Unset
I Range max         Unset
I Range init        Unset
Bandwidth           8
E2 (V)              -0.300
vs.                 Ref
nc cycles           0
Reverse Scan        1
Ef (V)              0.000
vs.                 Eoc

mode	ox/red	error	control changes	counter inc.	time/s	control/V	Ewe/V	<I>/mA	cycle number	(Q-Qo)/C	I Range	step time/s	P/W
2	1	1	0	0	0.000000000000000E+000	0.391809	0.391456	0.000185866	1	0.0000000E+000	43	0.000000000000000E+000	7.27584e-08
2	1	0	1	0	1.5268	0.422343	0.422116	0.000343967	1	4.40125e-07	43	1.4993	1.45194e-07
2	1	0	1	0	3.0761	0.453328	0.453043	0.000453559	1	1.0502e-06	43	3.0486	2.05482e-07
2	1	0	1	0	4.6253	0.484312	0.483806	0.00060276	1	1.86131e-06	43	4.5978	2.91619e-07
2	1	0	1	0	6.1745	0.515296	0.514866	0.000797571	1	2.94607e-06	43	6.147	4.10642e-07
2	1	0	1	0	7.7237	0.546281	0.545854	0.000984023	1	4.33244e-06	43	7.6962	5.37133e-07
2	1	0	1	0	9.3029	0.577865	0.57734	0.00110366	1	6.00226e-06	42	9.2754	6.37187e-07
2	1	0	1	0	10.8521	0.608849	0.608245	0.00118447	1	7.80488e-06	42	10.8246	7.20449e-07
2	1	0	1	0	12.4013	0.639834	0.639977	0.00121703	1	9.69305e-06	42	12.3738	7.7887e-07
2	1	0	1	0	13.9505	0.670818	0.670369	0.00125602	1	1.1631e-05	42	13.923	8.41995e-07
2	1	0	1	0	15.4998	0.701803	0.701836	0.00132485	1	1.36469e-05	42	15.4723	9.29825e-07
2	1	0	1	0	17.0491	0.732787	0.732681	0.00139787	1	1.57847e-05	42	17.0216	1.02419e-06
2	1	0	1	0	18.5983	0.763772	0.763341	0.00142638	1	1.80074e-05	42	18.5708	1.08881e-06
2	1	0	1	0	20.1475	0.794756	0.794385	0.00139071	1	2.02219e-05	42	20.12	1.10476e-06
2	1	0	1	0	21.6967	0.825741	0.825584	0.00134536	1	2.23718e-05	42	21.6692	1.11071e-06
2	1	0	1	0	23.2459	0.856725	0.856254	0.00129658	1	2.44483e-05	42	23.2184	1.1102e-06
2	1	0	1	0	24.7951	0.88771	0.88739	0.00125739	1	2.64577e-05	42	24.7676	1.1158e-06
2	1	0	1	0	26.3443	0.918694	0.918192	0.00125719	1	2.84341e-05	42	26.3168	1.15435e-06
2	1	0	1	0	27.8935	0.949678	0.949481	0.00139308	1	3.05025e-05	42	27.866	1.32271e-06
2	1	0	1	0	29.4428	0.980662	0.980356	0.00187741	1	3.30138e-05	42	29.4153	1.84053e-06
2	1	0	1	0	30.9921	1.01165	1.01157	0.00312154	1	3.67965e-05	42	30.9646	3.15765e-06
2	1	0	1	0	32.5413	1.04263	1.04232	0.00566167	1	4.34473e-05	42	32.5138	5.90127e-06
2	1	0	1	0	34.0905	1.07362	1.07346	0.00957921	1	5.51659e-05	42	34.063	1.02829e-05
2	1	0	1	0	35.6697	1.1052	1.10521	0.013788	1	7.37725e-05	41	35.6422	1.52386e-05
2	1	0	1	0	37.2189	1.13618	1.13592	0.0169957	1	9.79217e-05	41	37.1914	1.93058e-05
2	1	0	1	0	38.7681	1.16717	1.16676	0.0187583	1	0.000125888	41	38.7406	2.18864e-05
2	1	0	1	0	40.3173	1.19815	1.19761	0.0187573	1	0.000155306	41	40.2898	2.24638e-05
2	1	0	1	0	41.8665	1.22914	1.22899	0.0167054	1	0.000183108	41	41.839	2.05307e-05
2	1	0	1	0	43.4158	1.26012	1.25939	0.0137155	1	0.000206763	41	43.3883	1.72733e-05
2	1	0	1	0	44.9651	1.29111	1.29064	0.0114374	1	0.000225837	41	44.9376	1.47615e-05
2	1	0	1	0	46.5143	1.32209	1.32182	0.0123106	1	0.000243917	41	46.4868	1.62724e-05
2	1	0	1	0	48.0635	1.35308	1.35246	0.0147359	1	0.000264958	41	48.036	1.99296e-05
2	1	0	1	0	49.6127	1.38406	1.38402	0.0155213	1	0.000288526	41	49.5852	2.14817e-05
2	1	0	1	0	51.1619	1.41505	1.41438	0.0157819	1	0.000312817	41	51.1344	2.23217e-05
2	1	0	1	0	52.7111	1.44603	1.44568	0.0163588	1	0.000337671	41	52.6836	2.36496e-05
2	1	0	1	0	54.2603	1.47701	1.4768	0.0172156	1	0.000363707	41	54.2328	2.5424e-05
2	1	0	1	0	55.7351	1.49341	1.49324	0.0145619	1	0.000389056	41	55.7076	2.17444e-05
2	1	0	1	0	57.2843	1.46242	1.46231	0.00675099	1	0.000404515	41	57.2568	9.87201e-06
2	1	0	1	0	58.8635	1.43084	1.43017	0.0035744	1	0.000412329	42	58.836	5.11198e-06
2	1	0	1	0	60.4127	1.39985	1.39941	0.00206321	1	0.000416557	42	60.3852	2.88728e-06
2	1	0	1	0	61.9619	1.36887	1.36831	0.00124721	1	0.000419053	42	61.9344	1.70657e-06
2	1	0	1	0	63.5111	1.33788	1.33769	0.000769423	1	0.000420575	42	63.4836	1.02925e-06
2	1	0	1	0	65.0603	1.3069	1.3066	0.00047931	1	0.000421522	42	65.0328	6.26266e-07
2	1	0	1	0	66.7595	1.27292	1.27251	0.000255292	1	0.000422133	43	66.732	3.24862e-07
2	1	0	1	0	68.3087	1.24193	1.24176	0.000111254	1	0.000422412	43	68.2812	1.3815e-07
2	0	0	1	0	69.8579	1.21095	1.2104	-1.56962e-05	1	0.000422484	43	0.1498	-1.89987e-08
2	0	0	1	0	71.4072	1.17996	1.17936	-0.000146281	1	0.000422361	43	1.6991	-1.72517e-07
2	0	0	1	0	72.9564	1.14898	1.14823	-0.000310189	1	0.000422013	43	3.2483	-3.5617e-07
2	0	0	1	0	74.5057	1.11799	1.11762	-0.000546494	1	0.000421361	43	4.7976	-6.10773e-07
2	0	0	1	0	76.0549	1.08701	1.08665	-0.000934642	1	0.00042024	43	6.3468	-1.01563e-06
2	0	0	1	0	77.6341	1.05543	1.055	-0.00165711	1	0.000418248	42	7.926	-1.74825e-06
2	0	0	1	0	79.1833	1.02444	1.0242	-0.00315656	1	0.000414661	42	9.4752	-3.23296e-06
2	0	0	1	0	80.7325	0.993457	0.993165	-0.00686409	1	0.00040736	42	11.0244	-6.81717e-06
2	0	0	1	0	82.3117	0.961872	0.96159	-0.0161506	1	0.00038974	41	12.6036	-1.55302e-05
2	0	0	1	0	83.8609	0.930888	0.930291	-0.0160395	1	0.000361842	41	14.1528	-1.49214e-05
2	0	0	1	0	85.4101	0.899903	0.899614	-0.00837915	1	0.000343499	41	15.702	-7.53801e-06
2	0	0	1	0	86.9594	0.868917	0.86857	-0.00551927	1	0.000333017	41	17.2513	-4.79387e-06
2	0	0	1	0	88.5087	0.837935	0.837423	-0.00594782	1	0.000324337	41	18.8006	-4.98084e-06
2	0	0	1	0	90.0579	0.80695	0.806692	-0.00815758	1	0.000313167	41	20.3498	-6.58065e-06
2	0	0	1	0	91.6071	0.775966	0.77572	-0.00830148	1	0.000299653	41	21.899	-6.43962e-06
2	0	0	1	0	93.1563	0.744981	0.744715	-0.00648012	1	0.000287737	41	23.4482	-4.82585e-06
2	0	0	1	0	94.7055	0.713997	0.713526	-0.00497914	1	0.000278388	41	24.9974	-3.55275e-06
2	0	0	1	0	96.2847	0.682413	0.682149	-0.00434189	1	0.000270785	42	26.5766	-2.96182e-06
2	0	0	1	0	97.8339	0.651428	0.651354	-0.00369707	1	0.000264586	42	28.1258	-2.4081e-06
2	0	0	1	0	99.3831	0.620444	0.62016	-0.00321728	1	0.000259245	42	29.675	-1.99523e-06
2	0	0	1	0	100.932	0.589459	0.588862	-0.00289573	1	0.00025452	42	31.2242	-1.70519e-06
2	0	0	1	0	102.482	0.558476	0.557882	-0.0026464	1	0.000250241	42	32.7735	-1.47638e-06
2	0	0	1	0	104.031	0.52749	0.527269	-0.00248269	1	0.000246273	42	34.3228	-1.30904e-06
2	0	0	1	0	105.58	0.496506	0.495912	-0.00238434	1	0.000242507	42	35.872	-1.18242e-06
2	0	0	1	0	107.129	0.465521	0.465147	-0.00236537	1	0.000238831	42	37.4212	-1.10024e-06
2	0	0	1	0	108.678	0.434537	0.43418	-0.00238628	1	0.00023514	42	38.9704	-1.03608e-06
2	0	0	1	0	110.228	0.403552	0.403254	-0.00228702	1	0.000231498	42	40.5196	-9.2225e-07
2	0	0	1	0	111.777	0.372568	0.371842	-0.0021106	1	0.000228079	42	42.0688	-7.84811e-07
2	0	0	1	0	113.326	0.341584	0.341451	-0.00190088	1	0.000224968	42	43.618	-6.49058e-07
2	0	0	1	0	114.875	0.310598	0.310034	-0.00175843	1	0.000222135	42	45.1673	-5.45174e-07
2	0	0	1	0	116.425	0.279615	0.27927	-0.00162708	1	0.000219513	42	46.7166	-4.54395e-07
2	0	0	1	0	117.974	0.24863	0.247838	-0.00151833	1	0.000217067	42	48.2658	-3.76299e-07
2	0	0	1	0	119.523	0.217646	0.217107	-0.00139856	1	0.0002148	42	49.815	-3.03636e-07
2	0	0	1	0	121.072	0.186661	0.186214	-0.0013227	1	0.000212685	42	51.3642	-2.46305e-07
2	0	0	1	0	122.621	0.155677	0.154997	-0.00128006	1	0.000210668	42	52.9134	-1.98404e-07
2	0	0	1	0	124.171	0.124692	0.124678	-0.0013106	1	0.000208665	42	54.4626	-1.63403e-07
2	0	0	1	0	125.72	0.0937079	0.0933175	-0.00145154	1	0.000206539	42	56.0118	-1.35454e-07
2	0	0	1	0	127.269	0.0627235	0.0625624	-0.00181577	1	0.000204042	42	57.561	-1.13599e-07
2	0	0	1	0	128.818	0.0317399	0.0314441	-0.00257977	1	0.000200699	42	59.1103	-8.11185e-08
2	0	0	1	0	130.368	0.000754585	0.000547756	-0.00403606	1	0.00019567	42	60.6596	-2.21078e-09
2	0	0	1	0	131.917	-0.0302299	-0.0304032	-0.00640212	1	0.00018769	42	62.2088	1.94645e-07
2	0	0	1	0	133.466	-0.0612144	-0.0612624	-0.00941421	1	0.000175458	42	63.758	5.76738e-07
2	0	0	1	0	135.045	-0.0927985	-0.093224	-0.0119571	1	0.000158345	41	65.3372	1.11469e-06
2	0	0	1	0	136.594	-0.123783	-0.123901	-0.0132845	1	0.000138455	41	66.8864	1.64597e-06
2	0	0	1	0	138.144	-0.154767	-0.155357	-0.0134184	1	0.000117525	41	68.4356	2.08464e-06
2	0	0	1	0	139.693	-0.185752	-0.186275	-0.01302	1	9.68954e-05	41	69.9848	2.42529e-06
2	0	0	1	0	141.242	-0.216736	-0.217135	-0.012529	1	7.70269e-05	41	71.534	2.72049e-06
2	0	0	1	0	142.791	-0.247721	-0.247835	-0.0121797	1	5.78456e-05	41	73.0833	3.01855e-06
2	0	0	1	0	144.341	-0.278705	-0.278987	-0.0121134	1	3.90135e-05	41	74.6326	3.37946e-06
2	0	0	1	1	145.785	-0.292398	-0.292593	-0.0112637	1	2.16212e-05	41	76.0772	3.29567e-06
2	0	0	1	1	147.334	-0.261414	-0.26186	-0.00937629	1	5.82454e-06	41	77.6264	2.45528e-06
2	0	0	1	1	148.884	-0.23043	-0.230681	-0.00808512	1	-7.60984e-06	41	79.1756	1.86509e-06
2	0	0	1	1	150.433	-0.199445	-0.199491	-0.00703668	1	-1.92515e-05	41	80.7248	1.40375e-06
2	0	0	1	1	151.982	-0.168462	-0.168753	-0.00604354	1	-2.93063e-05	41	82.2741	1.01986e-06
2	0	0	1	1	153.531	-0.137476	-0.137705	-0.00505683	1	-3.78104e-05	41	83.8234	6.96352e-07
2	0	0	1	1	155.111	-0.105892	-0.106199	-0.00391503	1	-4.48325e-05	42	85.4026	4.15774e-07
2	0	0	1	1	156.66	-0.0749075	-0.074853	-0.00283681	1	-5.00502e-05	42	86.9518	2.12344e-07
2	0	0	1	1	158.209	-0.043923	-0.044007	-0.00182141	1	-5.36286e-05	42	88.501	8.0155e-08
2	0	0	1	1	159.758	-0.0129386	-0.0132209	-0.00104683	1	-5.5805e-05	42	90.0502	1.38401e-08
2	0	0	1	1	161.307	0.0180459	0.0176649	-0.000514418	1	-5.6978e-05	42	91.5994	-9.08714e-09
2	0	0	1	1	162.947	0.0508295	0.0506198	-0.000160384	1	-5.75061e-05	43	93.2386	-8.11863e-09
2	1	0	1	1	164.496	0.0818139	0.0819273	3.82656e-05	1	-5.75875e-05	43	0.2998	3.13499e-09
2	1	0	1	1	166.045	0.112798	0.112695	0.000155948	1	-5.74296e-05	43	1.849	1.75746e-08
2	1	0	1	1	167.594	0.143783	0.14369	0.000236365	1	-5.71223e-05	43	3.3982	3.39632e-08
2	1	0	1	1	169.144	0.174766	0.174678	0.000299239	1	-5.67081e-05	43	4.9475	5.22704e-08
2	1	0	1	1	170.693	0.205752	0.205397	0.000391697	1	-5.61793e-05	43	6.4968	8.04531e-08
2	1	0	1	1	172.242	0.236736	0.23659	0.000588192	1	-5.54348e-05	43	8.046	1.3916e-07
2	1	0	1	1	173.791	0.267721	0.267406	0.000801272	1	-5.43374e-05	43	9.5952	2.14264e-07
2	1	0	1	1	175.34	0.298705	0.298334	0.000757447	1	-5.3095e-05	43	11.1444	2.25972e-07
2	1	0	1	1	176.89	0.32969	0.329541	0.00065064	1	-5.20195e-05	43	12.6936	2.14413e-07
2	1	0	1	1	178.439	0.360674	0.360613	0.000680883	1	-5.09982e-05	43	14.2428	2.45535e-07
2	1	0	1	1	179.94	0.390709	0.39007	0.000799615	1	-4.99029e-05	43	15.7437	3.11906e-07