File: Python/Data/GoldElectrode/240308/240308-CVEIS_PostActivation-Fe2Fe3_5mM-HCl1M-0RPM-Ag_AgCl_BLF8-Au_RDE-C15_02_PEIS_C15.mpt
EC-Lab ASCII FILE
Nb header lines : 66

Potentio Electrochemical Impedance Spectroscopy

Run on channel : 15 (SN 19485)
User :
Electrode connection : standard
Potential control : Ewe
Ewe ctrl range : min = -1.00 V, max = 1.00 V
Ewe,I filtering : <None>
Safety Limits :
	Do not start on E overload
Channel : Floating
Acquisition started on : 03/08/2024 17:26:24.349
Loaded Setting File :  C:\Data\mathias\GoldElectrode\240308-CVEIS_PostActivation-Fe2Fe3_5mM-HCl1M-0RPM-Ag_AgCl_BLF8-Au_RDE-C15.mps
Saved on :
	File : 240308-CVEIS_PostActivation-Fe2Fe3_5mM-HCl1M-0RPM-Ag_AgCl_BLF8-Au_RDE-C15_02_PEIS_C15.mpr
	Directory : C:\Data\mathias\GoldElectrode\
	Host : 192.168.0.1
Device : VMP-300 (SN 0826)
Address : USB
EC-Lab for windows v11.52 (software)
Internet server v11.52 (firmware)
Command interpretor v11.52 (firmware)
Electrode material :
Initial state :
Electrolyte :
Comments :
Cable : special
Electrode surface area : 0.001 cm²
Characteristic mass : 0.001 g
Equivalent Weight : 0.000 g/eq.
Density : 0.000 g/cm3
Volume (V) : 0.001 cm³
Record EIS quality indicators
Cycle Definition : Charge/Discharge alternance
Mode                Single sine
E (V)               0.0000
vs.                 Eoc
tE (h:m:s)          0:01:0.0000
record              0
dI                  0.000
unit dI             mA
dt (s)              0.000
fi                  400.000
unit fi             kHz
ff                  100.000
unit ff             mHz
Nd                  10
Points              per decade
spacing             Logarithmic
Va (mV)             5.0
pw                  0.10
Na                  3
corr                0
E range min (V)     -1.000
E range max (V)     1.000
I Range             Auto
Bandwidth           8
nc cycles           1
goto Ns'            0
nr cycles           0
inc. cycle          1

freq/Hz	Re(Z)/Ohm	-Im(Z)/Ohm	|Z|/Ohm	Phase(Z)/deg	time/s	<Ewe>/V	<I>/mA	Cs/µF	Cp/µF	cycle number	I Range	|Ewe|/V	|I|/A	Ns	(Q-Qo)/mA.h	THD Ewe/%	NSD Ewe/%	NSR Ewe/%	|Ewe h2|/V	|Ewe h3|/V	|Ewe h4|/V	|Ewe h5|/V	|Ewe h6|/V	|Ewe h7|/V	THD I/%	NSD I/%	NSR I/%	|I h2|/A	|I h3|/A	|I h4|/A	|I h5|/A	|I h6|/A	|I h7|/A	Re(Y)/Ohm-1	Im(Y)/Ohm-1	|Y|/Ohm-1	Phase(Y)/deg	Re(C)/nF	Im(C)/nF	|C|/nF	Phase(C)/deg	Re(M)	Im(M)	|M|	Phase(M)/deg	Re(Permittivity)	Im(Permittivity)	|Permittivity|	Phase(Permittivity)/deg	Re(Resistivity)/Ohm.cm	Im(Resistivity)/Ohm.cm	|Resistivity|/Ohm.cm	Phase(Resistivity)/deg	Re(Conductivity)/mS/cm	Im(Conductivity)/mS/cm	|Conductivity|/mS/cm	Phase(Conductivity)/deg	Tan(Delta)	Loss Angle(Delta)/deg	dq/mA.h
399996	3.31389	1.21979	3.53125	-20.2079	263.592	0.45114	-0.00314322	0.326196	0.0389218	1	38	0.00463967	0.00131389	0	9.14228e-05	-1	-1	-1	0	0	0	0	0	0	-1	-1	-1	0	0	0	0	0	0	0.265754	0.0978201	0.283186	20.2079	38.9218	105.741	112.677	-69.7921	0.0000000E+000	0.0000000E+000	0.0000000E+000	69.7921	0.0000000E+000	0.0000000E+000	0.0000000E+000	-69.7921	0.0000000E+000	0.0000000E+000	0.0000000E+000	-20.2079	0.0000000E+000	0.0000000E+000	0.0000000E+000	20.2079	2.71677	69.7921	9.14228e-05
50326.6	3.41067	0.424384	3.43697	-7.09277	274.357	0.451163	-0.0322006	7.45183	0.113614	1	37	0.00519191	0.00151061	0	1.98822e-05	1.57421	1.03297	31.4052	3.79222e-05	3.4514e-05	1.55071e-05	2.28871e-05	4.11372e-05	3.35748e-05	0.679549	0.3817	11.6417	2.79387e-06	4.19487e-06	3.91285e-06	4.84203e-06	5.27093e-06	2.94986e-06	0.288727	0.0359259	0.290954	7.09277	113.614	913.084	920.125	-82.9072	0.0000000E+000	0.0000000E+000	0.0000000E+000	82.9072	0.0000000E+000	0.0000000E+000	0.0000000E+000	-82.9072	0.0000000E+000	0.0000000E+000	0.0000000E+000	-7.09277	0.0000000E+000	0.0000000E+000	0.0000000E+000	7.09277	8.03674	82.9072	-1.1586e-05
6332.63	3.97684	1.1191	4.1313	-15.7168	285.024	0.451032	-0.00386566	22.4579	1.64789	1	38	0.00491082	0.00118869	0	-7.57199e-05	1.84334	0.843823	32.3606	5.77141e-05	2.18448e-05	1.86127e-05	2.38627e-05	3.70057e-05	4.10077e-05	0.188273	0.0852606	2.46469	1.31031e-06	6.77448e-07	6.17802e-07	8.29648e-07	6.21854e-07	6.08296e-07	0.233005	0.0655682	0.242054	15.7168	1647.89	5855.99	6083.44	-74.2832	0.0000000E+000	0.0000000E+000	0.0000000E+000	74.2832	0.0000000E+000	0.0000000E+000	0.0000000E+000	-74.2832	0.0000000E+000	0.0000000E+000	0.0000000E+000	-15.7168	0.0000000E+000	0.0000000E+000	0.0000000E+000	15.7168	3.55362	74.2832	-3.18511e-06
796.787	6.52475	3.22538	7.27843	-26.3046	295.434	0.451008	-0.00360686	61.9294	12.1614	1	38	0.00516154	0.000709156	0	-8.53798e-05	2.39965	0.800599	30.2606	6.61081e-05	5.78082e-05	3.26855e-05	2.98764e-05	4.92062e-05	2.68929e-05	0.341485	0.140848	4.08429	8.93088e-07	1.14089e-06	1.01083e-06	1.18451e-06	7.18961e-07	4.83374e-07	0.123166	0.0608844	0.137392	26.3046	12161.4	24601.8	27443.5	-63.6954	0.0000000E+000	0.0000000E+000	0.0000000E+000	63.6954	0.0000000E+000	0.0000000E+000	0.0000000E+000	-63.6954	0.0000000E+000	0.0000000E+000	0.0000000E+000	-26.3046	0.0000000E+000	0.0000000E+000	0.0000000E+000	26.3046	2.02294	63.6954	-1.45519e-06
100.224	12.0852	6.82515	13.8793	-29.4557	305.388	0.451067	-0.00114539	232.667	56.2633	1	38	0.0050641	0.000364868	0	-8.82911e-05	1.60336	0.836799	30.5014	4.31692e-05	3.68273e-05	3.13968e-05	2.14212e-05	2.16586e-05	2.26041e-05	0.382399	0.22422	8.00634	6.54977e-07	5.32166e-07	4.86416e-07	5.24088e-07	4.36347e-07	4.35323e-07	0.0627364	0.0354306	0.0720499	29.4557	56263.3	99624.5	114414	-60.5442	0.0000000E+000	0.0000000E+000	0.0000000E+000	60.5442	0.0000000E+000	0.0000000E+000	0.0000000E+000	-60.5442	0.0000000E+000	0.0000000E+000	0.0000000E+000	-29.4557	0.0000000E+000	0.0000000E+000	0.0000000E+000	29.4557	1.77068	60.5442	-7.1028e-08
12.6144	24.0215	17.3927	29.657	-35.9063	315.322	0.451042	-0.000292362	725.42	249.498	1	39	0.0050712	0.000170995	0	-8.97399e-05	1.04603	0.53256	22.866	1.73121e-05	1.92827e-05	1.75512e-05	2.39576e-05	1.63258e-05	2.49347e-05	0.435692	0.207017	5.43716	5.14177e-07	2.33839e-07	2.83636e-07	2.49238e-07	1.32645e-07	1.36333e-07	0.0273115	0.0197748	0.0337189	35.9063	249498	344589	425430	-54.0937	0.0000000E+000	0.0000000E+000	0.0000000E+000	54.0937	0.0000000E+000	0.0000000E+000	0.0000000E+000	-54.0937	0.0000000E+000	0.0000000E+000	0.0000000E+000	-35.9063	0.0000000E+000	0.0000000E+000	0.0000000E+000	35.9063	1.38113	54.0938	9.23618e-07
1.5871	55.3534	47.7988	73.135	-40.8113	336.09	0.451051	-0.000212079	2097.97	896.153	1	40	0.00505365	6.91002e-05	0	-8.89697e-05	0.603661	0.697731	13.1949	8.46248e-06	9.27924e-06	1.37399e-05	6.52434e-06	1.09232e-05	1.78028e-05	0.378937	0.118304	1.21188	2.33844e-07	3.30219e-08	2.14734e-08	9.93594e-08	2.26033e-08	2.43347e-08	0.0103489	0.00893648	0.0136733	40.8113	896153	1.03779e+06	1.37117e+06	-49.1887	0.0000000E+000	0.0000000E+000	0.0000000E+000	49.1887	0.0000000E+000	0.0000000E+000	0.0000000E+000	-49.1887	0.0000000E+000	0.0000000E+000	0.0000000E+000	-40.8113	0.0000000E+000	0.0000000E+000	0.0000000E+000	40.8113	1.15805	49.1887	7.42962e-07
0.199573	143.596	134.724	196.902	-43.1742	477.06	0.451044	-0.000112317	5919.33	2771.17	1	41	0.00505345	2.56648e-05	0	-9.79575e-05	0.329719	0.180797	5.72628	5.23017e-06	9.81861e-06	4.78003e-06	5.66338e-06	4.78127e-06	5.92785e-06	0.463247	0.242616	0.922505	1.05932e-07	1.59948e-08	1.48792e-08	4.63204e-08	5.36704e-09	8.45522e-09	0.00370376	0.00347493	0.00507868	43.1742	2.77117e+06	2.95366e+06	4.05012e+06	-46.8258	0.0000000E+000	0.0000000E+000	0.0000000E+000	46.8258	0.0000000E+000	0.0000000E+000	0.0000000E+000	-46.8258	0.0000000E+000	0.0000000E+000	0.0000000E+000	-43.1742	0.0000000E+000	0.0000000E+000	0.0000000E+000	43.1742	1.06585	46.8258	2.35865e-06
126447	3.27322	0.598066	3.32741	-10.3546	634.738	0.451149	-0.000873515	2.10456	0.0679902	2	38	0.00513992	0.00154472	0	-9.7837e-05	-1	-1	-1	0	0	0	0	0	0	-1	-1	-1	0	0	0	0	0	0	0.29564	0.0540178	0.300534	10.3546	67.9903	372.111	378.272	-79.6454	0.0000000E+000	0.0000000E+000	0.0000000E+000	79.6454	0.0000000E+000	0.0000000E+000	0.0000000E+000	-79.6454	0.0000000E+000	0.0000000E+000	0.0000000E+000	-10.3546	0.0000000E+000	0.0000000E+000	0.0000000E+000	10.3546	5.47301	79.6454	2.97825e-06
15912.6	3.67127	0.727109	3.74258	-11.2027	645.06	0.451162	-0.000981514	13.7556	0.5192	2	38	0.00511114	0.00136567	0	-0.000104043	1.74535	1.06072	30.8095	5.46853e-05	1.5087e-05	3.99411e-05	2.99259e-05	2.98942e-05	2.6525e-05	0.138859	0.090499	2.12484	6.28082e-07	7.96498e-07	5.98119e-07	1.13336e-06	6.19192e-07	3.79189e-07	0.262104	0.0519106	0.267195	11.2027	519.2	2621.51	2672.43	-78.7973	0.0000000E+000	0.0000000E+000	0.0000000E+000	78.7973	0.0000000E+000	0.0000000E+000	0.0000000E+000	-78.7973	0.0000000E+000	0.0000000E+000	0.0000000E+000	-11.2027	0.0000000E+000	0.0000000E+000	0.0000000E+000	11.2027	5.04914	78.7973	-2.61611e-06
2001.92	5.20399	2.61361	5.82344	-26.6673	655.752	0.451041	-0.000678028	30.4182	6.1271	2	38	0.00517916	0.000889364	0	-0.000112998	1.52634	0.949029	30.1629	3.34519e-05	2.65962e-05	2.82803e-05	3.26584e-05	2.80538e-05	2.42902e-05	0.288456	0.129173	3.3071	1.92e-06	9.45261e-07	7.93979e-07	7.75135e-07	3.33991e-07	5.54255e-07	0.153454	0.0770693	0.17172	26.6673	6127.1	12199.7	13651.9	-63.3327	0.0000000E+000	0.0000000E+000	0.0000000E+000	63.3327	0.0000000E+000	0.0000000E+000	0.0000000E+000	-63.3327	0.0000000E+000	0.0000000E+000	0.0000000E+000	-26.6673	0.0000000E+000	0.0000000E+000	0.0000000E+000	26.6673	1.99111	63.3327	-1.04769e-06
251.853	10.1072	5.43005	11.4735	-28.2466	665.709	0.451052	0.000826403	116.377	26.0665	2	38	0.00490206	0.000427249	0	-0.000111883	1.43687	1.24263	31.5445	3.08761e-05	3.5859e-05	1.18434e-05	2.7754e-05	2.5053e-05	2.62257e-05	0.493258	0.249517	6.88175	1.2589e-06	9.09098e-07	2.34492e-07	4.87771e-07	7.97199e-07	7.31782e-07	0.0767784	0.0412487	0.0871572	28.2466	26066.5	48518.9	55077.6	-61.7534	0.0000000E+000	0.0000000E+000	0.0000000E+000	61.7534	0.0000000E+000	0.0000000E+000	0.0000000E+000	-61.7534	0.0000000E+000	0.0000000E+000	0.0000000E+000	-28.2466	0.0000000E+000	0.0000000E+000	0.0000000E+000	28.2466	1.86135	61.7534	6.83114e-07
31.6723	18.9267	11.7088	22.2557	-31.7426	675.725	0.451051	0.000155788	429.169	118.788	2	39	0.00490675	0.000220472	0	-0.000108257	1.1334	0.733292	32.6983	1.51594e-05	1.88029e-05	3.24603e-05	1.25472e-05	2.50051e-05	1.37989e-05	0.395782	0.171335	5.75687	5.58916e-07	2.39371e-07	2.93574e-07	4.00974e-07	2.3567e-07	2.24226e-07	0.0382114	0.0236391	0.0449324	31.7426	118788	192014	225788	-58.2574	0.0000000E+000	0.0000000E+000	0.0000000E+000	58.2574	0.0000000E+000	0.0000000E+000	0.0000000E+000	-58.2574	0.0000000E+000	0.0000000E+000	0.0000000E+000	-31.7426	0.0000000E+000	0.0000000E+000	0.0000000E+000	31.7426	1.61645	58.2574	1.19628e-07
3.98597	39.425	30.8363	50.0521	-38.0308	687.254	0.451041	0.000205082	1294.86	491.478	2	39	0.00490684	9.80345e-05	0	-0.000107898	1.3796	0.648843	15.5284	2.50713e-05	2.47441e-05	1.02564e-05	1.54092e-05	3.29026e-05	4.19958e-05	0.605566	0.434247	6.76204	4.07687e-07	2.0469e-07	1.57486e-07	2.06602e-07	1.24407e-07	2.29696e-07	0.0157372	0.0123089	0.0199792	38.0308	491478	628367	797744	-51.9692	0.0000000E+000	0.0000000E+000	0.0000000E+000	51.9692	0.0000000E+000	0.0000000E+000	0.0000000E+000	-51.9692	0.0000000E+000	0.0000000E+000	0.0000000E+000	-38.0308	0.0000000E+000	0.0000000E+000	0.0000000E+000	38.0308	1.27853	51.9692	-1.56339e-06
0.501541	95.3258	85.1931	127.847	-41.7873	742.987	0.451028	0.000199298	3724.86	1654	2	40	0.00490366	3.83557e-05	0	-0.000106511	0.407417	0.330617	7.60817	5.57529e-06	7.78783e-06	7.28348e-06	8.75454e-06	7.98407e-06	6.30488e-06	0.492609	0.308476	1.43397	1.68409e-07	3.9742e-08	3.86119e-08	4.8877e-08	2.14134e-08	2.42856e-08	0.00583216	0.00521222	0.00782185	41.7873	1.654e+06	1.85073e+06	2.48212e+06	-48.2127	0.0000000E+000	0.0000000E+000	0.0000000E+000	48.2127	0.0000000E+000	0.0000000E+000	0.0000000E+000	-48.2127	0.0000000E+000	0.0000000E+000	0.0000000E+000	-41.7873	0.0000000E+000	0.0000000E+000	0.0000000E+000	41.7873	1.11894	48.2127	7.6422e-07
0.0999518	202.607	189.027	277.094	-43.014	990.859	0.451063	0.000401947	8423.74	3920.13	2	41	0.00490291	1.7694e-05	0	-7.74683e-05	0.249413	0.185071	5.9846	5.72716e-06	6.42799e-06	1.4561e-06	1.89481e-06	5.7708e-06	4.66435e-06	0.474934	0.177201	1.04853	7.55628e-08	1.2328e-08	5.88612e-09	2.93499e-08	4.85815e-09	8.76667e-09	0.00263877	0.0024619	0.00360888	43.014	3.92013e+06	4.20175e+06	5.74649e+06	-46.986	0.0000000E+000	0.0000000E+000	0.0000000E+000	46.986	0.0000000E+000	0.0000000E+000	0.0000000E+000	-46.986	0.0000000E+000	0.0000000E+000	0.0000000E+000	-43.014	0.0000000E+000	0.0000000E+000	0.0000000E+000	43.014	1.07184	46.986	1.16248e-05