File: Python/Data/GoldElectrode/240308/240308-CVEIS_Activation-0p5H2SO4-Ag_AgCl_BLF8-Au_RDE-80cycles-C15_08_PEIS_C15.mpt
EC-Lab ASCII FILE
Nb header lines : 66

Potentio Electrochemical Impedance Spectroscopy

Run on channel : 15 (SN 19485)
User :
Electrode connection : standard
Potential control : Ewe
Ewe ctrl range : min = -2.50 V, max = 2.50 V
Ewe,I filtering : 50 kHz
Safety Limits :
	Do not start on E overload
Channel : Floating
Acquisition started on : 03/08/2024 16:29:18.805
Loaded Setting File :  NONE
Saved on :
	File : 240308-CVEIS_Activation-0p5H2SO4-Ag_AgCl_BLF8-Au_RDE-80cycles-C15_08_PEIS_C15.mpr
	Directory : C:\Data\mathias\GoldElectrode\
	Host : 192.168.0.1
Device : VMP-300 (SN 0826)
Address : USB
EC-Lab for windows v11.52 (software)
Internet server v11.52 (firmware)
Command interpretor v11.52 (firmware)
Electrode material :
Initial state :
Electrolyte :
Comments :
Cable : special
Electrode surface area : 0.001 cm²
Characteristic mass : 0.001 g
Equivalent Weight : 0.000 g/eq.
Density : 0.000 g/cm3
Volume (V) : 0.001 cm³
Record EIS quality indicators
Cycle Definition : Charge/Discharge alternance
Mode                Single sine
E (V)               0.0000
vs.                 Eoc
tE (h:m:s)          0:00:0.0000
record              0
dI                  0.000
unit dI             mA
dt (s)              0.000
fi                  100.000
unit fi             kHz
ff                  100.000
unit ff             Hz
Nd                  10
Points              per decade
spacing             Logarithmic
Va (mV)             5.0
pw                  0.10
Na                  2
corr                0
E range min (V)     -2.500
E range max (V)     2.500
I Range             Auto
Bandwidth           8
nc cycles           1
goto Ns'            0
nr cycles           0
inc. cycle          0

freq/Hz	Re(Z)/Ohm	-Im(Z)/Ohm	|Z|/Ohm	Phase(Z)/deg	time/s	<Ewe>/V	<I>/mA	Cs/µF	Cp/µF	cycle number	I Range	|Ewe|/V	|I|/A	Ns	(Q-Qo)/mA.h	THD Ewe/%	NSD Ewe/%	NSR Ewe/%	|Ewe h2|/V	|Ewe h3|/V	|Ewe h4|/V	|Ewe h5|/V	|Ewe h6|/V	|Ewe h7|/V	THD I/%	NSD I/%	NSR I/%	|I h2|/A	|I h3|/A	|I h4|/A	|I h5|/A	|I h6|/A	|I h7|/A	Re(Y)/Ohm-1	Im(Y)/Ohm-1	|Y|/Ohm-1	Phase(Y)/deg	Re(C)/nF	Im(C)/nF	|C|/nF	Phase(C)/deg	Re(M)	Im(M)	|M|	Phase(M)/deg	Re(Permittivity)	Im(Permittivity)	|Permittivity|	Phase(Permittivity)/deg	Re(Resistivity)/Ohm.cm	Im(Resistivity)/Ohm.cm	|Resistivity|/Ohm.cm	Phase(Resistivity)/deg	Re(Conductivity)/mS/cm	Im(Conductivity)/mS/cm	|Conductivity|/mS/cm	Phase(Conductivity)/deg	Tan(Delta)	Loss Angle(Delta)/deg	dq/mA.h
100004	6.13765	0.638321	6.17075	-5.93747	1598.15	0.399186	-0.0225428	2.49324	0.0266789	1	38	0.00484233	0.000784723	0	-8.96505e-06	1.51909	0.750343	32.4047	4.09183e-05	1.79483e-05	1.65724e-05	2.35481e-05	3.5461e-05	3.07904e-05	0.191775	0.0874452	3.96089	5.91864e-07	2.52824e-07	7.02809e-07	8.04885e-07	4.8735e-07	4.7037e-07	0.161186	0.0167635	0.162055	5.93747	26.6789	256.525	257.909	-84.0625	0.0000000E+000	0.0000000E+000	0.0000000E+000	84.0625	0.0000000E+000	0.0000000E+000	0.0000000E+000	-84.0625	0.0000000E+000	0.0000000E+000	0.0000000E+000	-5.93747	0.0000000E+000	0.0000000E+000	0.0000000E+000	5.93747	9.61529	84.0625	-8.96505e-06
39814.1	6.27771	0.815209	6.33041	-7.3989	1601.4	0.399174	-0.0112203	4.90359	0.0813183	1	38	0.00521012	0.00082303	0	-1.83003e-05	1.67675	0.84144	29.1868	2.8489e-05	2.14205e-05	4.21874e-05	4.0628e-05	1.73835e-05	4.60562e-05	0.167585	0.0438089	3.88839	7.46465e-07	6.57956e-07	4.95788e-07	5.91526e-07	4.32543e-07	1.59693e-07	0.156652	0.0203425	0.157968	7.3989	81.3183	626.21	631.468	-82.6011	0.0000000E+000	0.0000000E+000	0.0000000E+000	82.6011	0.0000000E+000	0.0000000E+000	0.0000000E+000	-82.6011	0.0000000E+000	0.0000000E+000	0.0000000E+000	-7.3989	0.0000000E+000	0.0000000E+000	0.0000000E+000	7.3989	7.70073	82.6011	-1.72111e-06
15847.7	6.51375	1.5079	6.68601	-13.0341	1604.66	0.399158	-0.010779	6.66013	0.33876	1	38	0.00513526	0.000768061	0	-2.7108e-05	1.22928	1.02001	30.5179	1.10295e-05	1.76348e-05	2.63145e-05	2.35109e-05	1.70843e-05	3.11676e-05	0.187941	0.127263	4.04193	4.34436e-07	5.60101e-07	4.5603e-07	4.05599e-07	5.47567e-07	8.12129e-07	0.145713	0.0337317	0.149566	13.0341	338.76	1463.36	1502.06	-76.9659	0.0000000E+000	0.0000000E+000	0.0000000E+000	76.9659	0.0000000E+000	0.0000000E+000	0.0000000E+000	-76.9659	0.0000000E+000	0.0000000E+000	0.0000000E+000	-13.0341	0.0000000E+000	0.0000000E+000	0.0000000E+000	13.0341	4.31976	76.9659	-3.11219e-06
6307.74	7.29734	2.88066	7.84534	-21.5419	1608.04	0.399034	-0.0110118	8.759	1.18091	1	38	0.00506831	0.000646028	0	-3.9613e-05	2.09597	0.690343	30.886	6.39277e-06	8.68612e-05	3.68472e-05	2.20127e-05	2.71288e-05	2.12485e-05	0.382861	0.162523	4.92723	4.52044e-07	1.9243e-06	7.02204e-07	4.51782e-07	8.10283e-07	5.64295e-07	0.118561	0.0468024	0.127464	21.5419	1180.91	2991.49	3216.14	-68.4581	0.0000000E+000	0.0000000E+000	0.0000000E+000	68.4581	0.0000000E+000	0.0000000E+000	0.0000000E+000	-68.4581	0.0000000E+000	0.0000000E+000	0.0000000E+000	-21.5419	0.0000000E+000	0.0000000E+000	0.0000000E+000	21.5419	2.53322	68.4581	-3.89637e-06
2512.41	8.45499	5.52767	10.1016	-33.1757	1611.24	0.399041	-0.00917964	11.4601	3.43157	1	38	0.00514982	0.000509803	0	-4.8862e-05	1.36806	1.2888	30.6545	4.21777e-05	2.43799e-05	2.92281e-05	1.34417e-05	2.06686e-05	3.09343e-05	0.357957	0.26133	6.33609	8.46785e-07	1.04792e-06	6.40371e-07	6.062e-07	5.78224e-07	4.9948e-07	0.0828579	0.0541706	0.0989944	33.1757	3431.57	5248.84	6271.05	-56.8243	0.0000000E+000	0.0000000E+000	0.0000000E+000	56.8243	0.0000000E+000	0.0000000E+000	0.0000000E+000	-56.8243	0.0000000E+000	0.0000000E+000	0.0000000E+000	-33.1757	0.0000000E+000	0.0000000E+000	0.0000000E+000	33.1757	1.52957	56.8243	-1.52182e-06
999.682	10.2775	10.7546	14.8757	-46.2996	1614.22	0.399042	-0.00773106	14.8035	7.7374	1	38	0.00505062	0.000339521	0	-5.57379e-05	2.08368	0.865689	30.9938	3.96044e-05	2.03982e-05	4.96581e-05	6.62044e-05	2.95301e-05	2.97425e-05	0.528259	0.228944	9.48362	9.13132e-07	8.53002e-07	5.47626e-07	4.66177e-07	6.26979e-07	5.33479e-07	0.0464439	0.0486001	0.0672235	46.2996	7737.4	7394.13	10702.4	-43.7004	0.0000000E+000	0.0000000E+000	0.0000000E+000	43.7004	0.0000000E+000	0.0000000E+000	0.0000000E+000	-43.7004	0.0000000E+000	0.0000000E+000	0.0000000E+000	-46.2996	0.0000000E+000	0.0000000E+000	0.0000000E+000	46.2996	0.955635	43.7004	-1.76361e-06
398.089	12.5388	22.7091	25.9408	-61.0948	1617.19	0.399044	-0.00485437	17.6052	13.4919	1	38	0.0049287	0.000189998	0	-6.04876e-05	2.23653	1.81054	32.5675	3.90745e-05	2.26261e-05	5.29208e-05	2.23013e-05	5.70107e-05	5.09691e-05	1.05062	0.705743	16.8922	1.1765e-06	3.12683e-07	5.47175e-07	1.05564e-06	9.5258e-07	2.81209e-07	0.0186333	0.0337469	0.0385493	61.0948	13491.9	7449.53	15411.9	-28.9052	0.0000000E+000	0.0000000E+000	0.0000000E+000	28.9052	0.0000000E+000	0.0000000E+000	0.0000000E+000	-28.9052	0.0000000E+000	0.0000000E+000	0.0000000E+000	-61.0948	0.0000000E+000	0.0000000E+000	0.0000000E+000	61.0948	0.552147	28.9052	-8.6797e-07
158.529	16.1152	51.2842	53.7566	-72.5555	1620.42	0.399019	-0.00104002	19.5762	17.8169	1	39	0.00495955	9.22593e-05	0	-6.12362e-05	1.46869	0.579331	29.3866	3.96673e-05	2.29371e-05	3.11101e-05	1.85649e-05	2.14669e-05	3.08522e-05	1.02043	0.242373	15.1665	6.54601e-07	4.3781e-07	2.11632e-07	1.28798e-07	2.8615e-07	3.02528e-07	0.00557664	0.0177468	0.0186024	72.5555	17816.9	5598.66	18675.8	-17.4445	0.0000000E+000	0.0000000E+000	0.0000000E+000	17.4445	0.0000000E+000	0.0000000E+000	0.0000000E+000	-17.4445	0.0000000E+000	0.0000000E+000	0.0000000E+000	-72.5555	0.0000000E+000	0.0000000E+000	0.0000000E+000	72.5555	0.314233	17.4445	-3.58679e-07
79433.3	6.12743	0.630425	6.15977	-5.87425	1624.15	0.399159	-0.00779062	3.17822	0.0332906	2	38	0.00510338	0.000828501	0	-6.44973e-05	1.68279	0.999165	31.3075	3.62849e-05	3.75414e-05	1.46862e-05	4.62437e-05	4.37189e-05	1.34541e-05	0.15484	0.0857686	3.85997	3.00173e-07	4.81228e-07	6.28445e-07	4.22483e-07	4.36677e-07	5.58375e-07	0.161491	0.0166151	0.162344	5.87425	33.2906	323.569	325.277	-84.1257	0.0000000E+000	0.0000000E+000	0.0000000E+000	84.1257	0.0000000E+000	0.0000000E+000	0.0000000E+000	-84.1257	0.0000000E+000	0.0000000E+000	0.0000000E+000	-5.87425	0.0000000E+000	0.0000000E+000	0.0000000E+000	5.87425	9.71952	84.1257	-1.45984e-06
31621.1	6.30166	0.945534	6.3722	-8.53329	1627.41	0.399126	-0.00831755	5.32311	0.117203	2	38	0.00516471	0.000810507	0	-6.87959e-05	1.46426	0.957056	30.2819	3.77014e-05	2.48668e-05	1.64477e-05	2.42371e-05	2.48135e-05	3.9186e-05	0.219652	0.110603	3.83864	6.11149e-07	4.27955e-07	9.46648e-07	6.75057e-07	4.11721e-07	8.67185e-07	0.155194	0.0232862	0.156932	8.53329	117.203	781.121	789.865	-81.4667	0.0000000E+000	0.0000000E+000	0.0000000E+000	81.4667	0.0000000E+000	0.0000000E+000	0.0000000E+000	-81.4667	0.0000000E+000	0.0000000E+000	0.0000000E+000	-8.53329	0.0000000E+000	0.0000000E+000	0.0000000E+000	8.53329	6.66466	81.4667	-1.8872e-06
12590.9	6.73289	1.80626	6.97097	-15.0173	1630.67	0.399116	-0.00675539	6.99814	0.469846	2	38	0.00521159	0.000747614	0	-7.82639e-05	1.49971	1.22863	30.1296	5.93201e-05	2.33917e-05	2.53643e-05	1.88858e-05	2.25927e-05	1.93289e-05	0.183828	0.14758	4.20255	4.36522e-07	4.53498e-07	5.32882e-07	6.80409e-07	4.17369e-07	6.8271e-07	0.138553	0.0371701	0.143452	15.0173	469.846	1751.37	1813.3	-74.9827	0.0000000E+000	0.0000000E+000	0.0000000E+000	74.9827	0.0000000E+000	0.0000000E+000	0.0000000E+000	-74.9827	0.0000000E+000	0.0000000E+000	0.0000000E+000	-15.0173	0.0000000E+000	0.0000000E+000	0.0000000E+000	15.0173	3.72754	74.9827	-2.49138e-06
5011.6	7.49486	3.44059	8.24685	-24.658	1633.99	0.399031	-0.00557679	9.2302	1.60657	2	38	0.00537067	0.000651239	0	-8.28249e-05	1.2923	0.597897	27.6563	1.84571e-05	1.87307e-05	5.37115e-05	1.70172e-05	2.13992e-05	1.43307e-05	0.304126	0.136272	4.89284	1.3186e-06	2.48596e-07	4.73805e-07	7.52837e-07	6.06057e-07	7.73062e-07	0.110201	0.0505891	0.121258	24.658	1606.57	3499.7	3850.84	-65.342	0.0000000E+000	0.0000000E+000	0.0000000E+000	65.342	0.0000000E+000	0.0000000E+000	0.0000000E+000	-65.342	0.0000000E+000	0.0000000E+000	0.0000000E+000	-24.658	0.0000000E+000	0.0000000E+000	0.0000000E+000	24.658	2.17837	65.342	-1.48815e-06
1995.64	8.87313	6.43424	10.9605	-35.9473	1637.18	0.399008	-0.00589332	12.3949	4.27147	2	38	0.00510185	0.000465477	0	-8.90083e-05	1.47111	0.942661	30.7237	3.35731e-05	3.07412e-05	1.28343e-05	2.86854e-05	4.09458e-05	2.85972e-05	0.349937	0.209613	6.87652	4.78928e-07	1.06696e-06	2.66714e-07	3.88313e-07	7.4182e-07	5.13536e-07	0.0738616	0.0535598	0.091237	35.9473	4271.47	5890.57	7276.28	-54.0527	0.0000000E+000	0.0000000E+000	0.0000000E+000	54.0527	0.0000000E+000	0.0000000E+000	0.0000000E+000	-54.0527	0.0000000E+000	0.0000000E+000	0.0000000E+000	-35.9473	0.0000000E+000	0.0000000E+000	0.0000000E+000	35.9473	1.37905	54.0527	-1.36082e-06
794.239	10.7595	12.9738	16.8549	-50.3301	1640.15	0.398999	-0.0058114	15.4455	9.15133	2	38	0.00500467	0.000296927	0	-9.31588e-05	1.72239	1.07673	30.6453	2.90962e-05	3.37869e-05	4.02306e-05	4.85052e-05	8.42775e-06	2.73299e-05	0.869767	0.396935	10.8695	1.8564e-06	7.7635e-07	9.68788e-07	6.40215e-07	5.80803e-07	7.75432e-07	0.0378741	0.0456684	0.05933	50.3301	9151.33	7589.47	11888.9	-39.6699	0.0000000E+000	0.0000000E+000	0.0000000E+000	39.6699	0.0000000E+000	0.0000000E+000	0.0000000E+000	-39.6699	0.0000000E+000	0.0000000E+000	0.0000000E+000	-50.3301	0.0000000E+000	0.0000000E+000	0.0000000E+000	50.3301	0.82933	39.6699	-1.03104e-06
316.316	13.3337	27.8756	30.9005	-64.4369	1643.38	0.399021	-0.000364957	18.0499	14.6891	2	39	0.00508913	0.000164694	0	-9.59843e-05	1.5549	0.688269	27.4983	3.36551e-05	3.72235e-05	2.31522e-05	3.56025e-05	3.33028e-05	1.63813e-05	0.878022	0.295457	8.35351	1.28545e-06	2.94879e-07	2.49012e-07	4.51802e-07	1.49349e-07	2.19151e-07	0.0139644	0.0291941	0.032362	64.4369	14689.1	7026.2	16283	-25.5631	0.0000000E+000	0.0000000E+000	0.0000000E+000	25.5631	0.0000000E+000	0.0000000E+000	0.0000000E+000	-25.5631	0.0000000E+000	0.0000000E+000	0.0000000E+000	-64.4369	0.0000000E+000	0.0000000E+000	0.0000000E+000	64.4369	0.478329	25.5631	-7.75193e-08
125.927	17.5167	63.349	65.7262	-74.5433	1646.35	0.39907	-0.00080817	19.9509	18.5338	2	39	0.00492784	7.49752e-05	0	-9.62992e-05	1.31788	0.791513	30.7604	2.16357e-05	1.51337e-05	3.83483e-05	3.57419e-05	1.57442e-05	1.95701e-05	0.871424	0.435221	18.0189	2.61157e-07	2.14004e-07	2.22575e-07	3.03555e-07	2.14407e-07	2.91011e-07	0.00405486	0.0146643	0.0152146	74.5433	18533.8	5124.81	19229.3	-15.4567	0.0000000E+000	0.0000000E+000	0.0000000E+000	15.4567	0.0000000E+000	0.0000000E+000	0.0000000E+000	-15.4567	0.0000000E+000	0.0000000E+000	0.0000000E+000	-74.5433	0.0000000E+000	0.0000000E+000	0.0000000E+000	74.5433	0.276512	15.4567	-1.20842e-07
99.9682	19.5944	79.0878	81.479	-76.0849	1647.09	0.399031	-0.000249032	20.1302	18.9661	2	39	0.00494682	6.07128e-05	0	-9.64568e-05	1.18146	0.875036	31.6524	3.89685e-05	2.03399e-05	7.21565e-06	2.43686e-05	1.56314e-05	1.02456e-05	1.49741	0.833713	23.4568	5.11473e-07	3.14504e-07	3.4153e-07	4.15593e-07	1.63921e-07	2.6684e-07	0.00295149	0.0119129	0.0122731	76.0849	18966	4698.93	19539.5	-13.9151	0.0000000E+000	0.0000000E+000	0.0000000E+000	13.9151	0.0000000E+000	0.0000000E+000	0.0000000E+000	-13.9151	0.0000000E+000	0.0000000E+000	0.0000000E+000	-76.0849	0.0000000E+000	0.0000000E+000	0.0000000E+000	76.0849	0.247755	13.9151	-1.57625e-07