File: Python/Data/GoldElectrode/240308/240308-CVEIS_Activation-0p5H2SO4-Ag_AgCl_BLF8-Au_RDE-80cycles-C15_06_PEIS_C15.mpt
EC-Lab ASCII FILE
Nb header lines : 66

Potentio Electrochemical Impedance Spectroscopy

Run on channel : 15 (SN 19485)
User :
Electrode connection : standard
Potential control : Ewe
Ewe ctrl range : min = -2.50 V, max = 2.50 V
Ewe,I filtering : 50 kHz
Safety Limits :
	Do not start on E overload
Channel : Floating
Acquisition started on : 03/08/2024 16:29:18.805
Loaded Setting File :  NONE
Saved on :
	File : 240308-CVEIS_Activation-0p5H2SO4-Ag_AgCl_BLF8-Au_RDE-80cycles-C15_06_PEIS_C15.mpr
	Directory : C:\Data\mathias\GoldElectrode\
	Host : 192.168.0.1
Device : VMP-300 (SN 0826)
Address : USB
EC-Lab for windows v11.52 (software)
Internet server v11.52 (firmware)
Command interpretor v11.52 (firmware)
Electrode material :
Initial state :
Electrolyte :
Comments :
Cable : special
Electrode surface area : 0.001 cm²
Characteristic mass : 0.001 g
Equivalent Weight : 0.000 g/eq.
Density : 0.000 g/cm3
Volume (V) : 0.001 cm³
Record EIS quality indicators
Cycle Definition : Charge/Discharge alternance
Mode                Single sine
E (V)               0.0000
vs.                 Eoc
tE (h:m:s)          0:00:0.0000
record              0
dI                  0.000
unit dI             mA
dt (s)              0.000
fi                  100.000
unit fi             kHz
ff                  100.000
unit ff             Hz
Nd                  10
Points              per decade
spacing             Logarithmic
Va (mV)             5.0
pw                  0.10
Na                  2
corr                0
E range min (V)     -2.500
E range max (V)     2.500
I Range             Auto
Bandwidth           8
nc cycles           1
goto Ns'            0
nr cycles           0
inc. cycle          0

freq/Hz	Re(Z)/Ohm	-Im(Z)/Ohm	|Z|/Ohm	Phase(Z)/deg	time/s	<Ewe>/V	<I>/mA	Cs/µF	Cp/µF	cycle number	I Range	|Ewe|/V	|I|/A	Ns	(Q-Qo)/mA.h	THD Ewe/%	NSD Ewe/%	NSR Ewe/%	|Ewe h2|/V	|Ewe h3|/V	|Ewe h4|/V	|Ewe h5|/V	|Ewe h6|/V	|Ewe h7|/V	THD I/%	NSD I/%	NSR I/%	|I h2|/A	|I h3|/A	|I h4|/A	|I h5|/A	|I h6|/A	|I h7|/A	Re(Y)/Ohm-1	Im(Y)/Ohm-1	|Y|/Ohm-1	Phase(Y)/deg	Re(C)/nF	Im(C)/nF	|C|/nF	Phase(C)/deg	Re(M)	Im(M)	|M|	Phase(M)/deg	Re(Permittivity)	Im(Permittivity)	|Permittivity|	Phase(Permittivity)/deg	Re(Resistivity)/Ohm.cm	Im(Resistivity)/Ohm.cm	|Resistivity|/Ohm.cm	Phase(Resistivity)/deg	Re(Conductivity)/mS/cm	Im(Conductivity)/mS/cm	|Conductivity|/mS/cm	Phase(Conductivity)/deg	Tan(Delta)	Loss Angle(Delta)/deg	dq/mA.h
100004	6.13844	0.664264	6.17428	-6.17616	1185.88	0.399162	-0.0219135	2.39587	0.0277314	1	38	0.00483458	0.000783019	0	-6.44247e-06	1.89116	0.538024	31.2499	5.22274e-05	4.14713e-05	2.71217e-05	4.08574e-05	3.14312e-05	1.27346e-05	0.26136	0.157077	3.97339	5.94719e-07	1.18433e-06	8.21715e-07	6.2067e-07	6.23207e-07	7.31906e-07	0.161022	0.0174248	0.161962	6.17616	27.7314	256.265	257.761	-83.8238	0.0000000E+000	0.0000000E+000	0.0000000E+000	83.8238	0.0000000E+000	0.0000000E+000	0.0000000E+000	-83.8238	0.0000000E+000	0.0000000E+000	0.0000000E+000	-6.17616	0.0000000E+000	0.0000000E+000	0.0000000E+000	6.17616	9.24097	83.8238	-6.44247e-06
39814.1	6.25304	0.83277	6.30825	-7.58593	1189.13	0.399159	-0.011859	4.80019	0.0836549	1	38	0.00519008	0.000822746	0	-1.51418e-05	1.52941	0.741773	30.4971	3.75038e-06	1.48185e-05	2.79805e-05	1.54168e-05	4.15928e-05	4.5519e-05	0.257461	0.0794018	3.77582	5.7885e-07	1.60021e-06	5.12695e-07	5.06655e-07	6.14329e-07	5.56777e-07	0.157135	0.020927	0.158523	7.58593	83.655	628.141	633.687	-82.4141	0.0000000E+000	0.0000000E+000	0.0000000E+000	82.4141	0.0000000E+000	0.0000000E+000	0.0000000E+000	-82.4141	0.0000000E+000	0.0000000E+000	0.0000000E+000	-7.58593	0.0000000E+000	0.0000000E+000	0.0000000E+000	7.58593	7.50872	82.4141	-3.33256e-06
15847.7	6.58485	1.5615	6.76746	-13.3404	1192.39	0.399187	-0.0102353	6.43152	0.342408	1	38	0.00513155	0.000758268	0	-2.21385e-05	1.8753	0.811798	30.3709	3.44901e-05	5.4541e-05	3.47656e-05	1.79127e-05	2.29758e-05	4.46376e-05	0.276923	0.1166	4.20413	4.66343e-07	5.94623e-07	7.77685e-07	6.06975e-07	6.3735e-07	1.15617e-06	0.143779	0.0340949	0.147766	13.3404	342.408	1443.94	1483.98	-76.6596	0.0000000E+000	0.0000000E+000	0.0000000E+000	76.6596	0.0000000E+000	0.0000000E+000	0.0000000E+000	-76.6596	0.0000000E+000	0.0000000E+000	0.0000000E+000	-13.3404	0.0000000E+000	0.0000000E+000	0.0000000E+000	13.3404	4.21702	76.6596	-1.46415e-06
6307.74	7.31212	3.03115	7.91549	-22.5159	1195.77	0.39902	-0.00922432	8.32414	1.22067	1	38	0.00509165	0.000643252	0	-3.1185e-05	1.72699	0.769728	32.1664	2.85876e-05	6.50417e-05	3.08359e-05	2.67119e-05	2.04893e-05	2.08394e-05	0.295776	0.199025	4.94699	1.00125e-06	1.0175e-06	6.78084e-07	5.4757e-07	5.07177e-07	7.04814e-07	0.116705	0.0483785	0.126335	22.5159	1220.67	2944.66	3187.64	-67.4841	0.0000000E+000	0.0000000E+000	0.0000000E+000	67.4841	0.0000000E+000	0.0000000E+000	0.0000000E+000	-67.4841	0.0000000E+000	0.0000000E+000	0.0000000E+000	-22.5159	0.0000000E+000	0.0000000E+000	0.0000000E+000	22.5159	2.41233	67.4841	-1.04448e-06
2512.41	8.51686	5.61992	10.2039	-33.4192	1198.97	0.399007	-0.00871601	11.272	3.4192	1	38	0.00512387	0.000502146	0	-3.78769e-05	1.32992	1.41362	31.4812	3.20689e-05	2.90342e-05	2.86778e-05	2.80558e-05	2.49044e-05	1.65404e-05	0.34595	0.312446	6.42629	1.04754e-06	7.07711e-07	6.37451e-07	4.13822e-07	7.15313e-07	5.25981e-07	0.0817982	0.0539752	0.0980013	33.4192	3419.2	5181.71	6208.14	-56.5808	0.0000000E+000	0.0000000E+000	0.0000000E+000	56.5808	0.0000000E+000	0.0000000E+000	0.0000000E+000	-56.5808	0.0000000E+000	0.0000000E+000	0.0000000E+000	-33.4192	0.0000000E+000	0.0000000E+000	0.0000000E+000	33.4192	1.51548	56.5808	-1.90967e-06
999.682	10.4343	10.777	15.0006	-45.9257	1201.95	0.399004	-0.0087905	14.7727	7.62497	1	38	0.00499888	0.000333245	0	-4.52961e-05	2.07426	0.730061	31.2144	3.93624e-05	1.16089e-05	6.65142e-05	3.11602e-05	5.70701e-05	1.76424e-05	0.592807	0.317653	9.47521	1.34122e-06	7.29142e-07	5.56254e-07	9.57405e-07	3.74477e-07	2.70778e-07	0.0463707	0.0478938	0.0666638	45.9257	7624.97	7382.48	10613.3	-44.0743	0.0000000E+000	0.0000000E+000	0.0000000E+000	44.0743	0.0000000E+000	0.0000000E+000	0.0000000E+000	-44.0743	0.0000000E+000	0.0000000E+000	0.0000000E+000	-45.9257	0.0000000E+000	0.0000000E+000	0.0000000E+000	45.9257	0.968198	44.0743	-1.68618e-06
398.089	12.8704	22.979	26.3379	-60.7471	1204.92	0.399062	-0.0041487	17.3984	13.2437	1	38	0.00495376	0.000188085	0	-4.96127e-05	1.62962	1.0143	29.9187	1.81766e-05	3.24835e-05	2.31601e-05	4.54471e-05	2.73162e-05	4.09725e-05	0.861726	0.664689	16.6813	7.80521e-07	4.05849e-07	6.6087e-07	5.20824e-07	6.93119e-07	6.16074e-07	0.0185537	0.0331261	0.0379681	60.7471	13243.7	7417.73	15179.6	-29.2529	0.0000000E+000	0.0000000E+000	0.0000000E+000	29.2529	0.0000000E+000	0.0000000E+000	0.0000000E+000	-29.2529	0.0000000E+000	0.0000000E+000	0.0000000E+000	-60.7471	0.0000000E+000	0.0000000E+000	0.0000000E+000	60.7471	0.560094	29.2529	-1.05521e-06
158.529	16.6362	51.5897	54.2057	-72.127	1208.15	0.399046	-0.000896699	19.4602	17.6272	1	39	0.00496237	9.15469e-05	0	-5.10491e-05	1.20212	1.03415	30.1319	4.07206e-05	1.97922e-05	1.28378e-05	1.97469e-05	1.86335e-05	1.94186e-05	0.839887	0.37371	15.0148	3.71541e-07	1.81721e-07	3.28466e-07	3.67268e-07	2.83242e-07	1.41269e-07	0.00566191	0.0175579	0.0184482	72.127	17627.2	5684.27	18521.1	-17.873	0.0000000E+000	0.0000000E+000	0.0000000E+000	17.873	0.0000000E+000	0.0000000E+000	0.0000000E+000	-17.873	0.0000000E+000	0.0000000E+000	0.0000000E+000	-72.127	0.0000000E+000	0.0000000E+000	0.0000000E+000	72.127	0.322471	17.873	-1.5021e-07
79433.3	6.17403	0.645658	6.2077	-5.97009	1211.88	0.399132	-0.00627315	3.10324	0.0335706	2	38	0.00513171	0.000826669	0	-5.39e-05	1.97151	0.498733	29.5289	2.00489e-05	5.21847e-05	3.28886e-05	5.54745e-05	3.78631e-05	2.82191e-05	0.20078	0.0788991	3.70644	3.46953e-07	8.07984e-07	2.40014e-07	5.19509e-07	8.40389e-07	9.28462e-07	0.160217	0.0167549	0.16109	5.97009	33.5706	321.015	322.765	-84.0299	0.0000000E+000	0.0000000E+000	0.0000000E+000	84.0299	0.0000000E+000	0.0000000E+000	0.0000000E+000	-84.0299	0.0000000E+000	0.0000000E+000	0.0000000E+000	-5.97009	0.0000000E+000	0.0000000E+000	0.0000000E+000	5.97009	9.56238	84.0299	-9.80489e-07
31621.1	6.30214	0.962048	6.37514	-8.67944	1215.14	0.39915	-0.00650216	5.23174	0.11914	2	38	0.00516017	0.00080942	0	-5.85518e-05	1.89016	0.535985	29.7156	4.00306e-05	3.3852e-05	2.62261e-05	1.58906e-05	4.75243e-05	5.26599e-05	0.238436	0.121961	3.83392	6.34096e-07	1.31808e-06	9.50811e-07	5.04943e-07	2.71737e-07	2.43282e-07	0.155063	0.023671	0.156859	8.67944	119.14	780.46	789.501	-81.3206	0.0000000E+000	0.0000000E+000	0.0000000E+000	81.3206	0.0000000E+000	0.0000000E+000	0.0000000E+000	-81.3206	0.0000000E+000	0.0000000E+000	0.0000000E+000	-8.67944	0.0000000E+000	0.0000000E+000	0.0000000E+000	8.67944	6.55075	81.3206	-2.49176e-07
12590.9	6.64868	1.84407	6.89967	-15.5018	1218.4	0.399128	-0.00604599	6.85464	0.489647	2	38	0.00497961	0.000721717	0	-6.04029e-05	1.77519	0.722477	31.1296	2.83808e-05	3.80589e-05	4.2834e-05	1.35953e-05	2.2107e-05	5.11747e-05	0.280025	0.147929	4.38521	5.05869e-07	6.27571e-07	1.01708e-06	7.3986e-07	6.85248e-07	1.05886e-06	0.139662	0.0387365	0.144934	15.5018	489.647	1765.39	1832.04	-74.4982	0.0000000E+000	0.0000000E+000	0.0000000E+000	74.4982	0.0000000E+000	0.0000000E+000	0.0000000E+000	-74.4982	0.0000000E+000	0.0000000E+000	0.0000000E+000	-15.5018	0.0000000E+000	0.0000000E+000	0.0000000E+000	15.5018	3.60543	74.4982	2.91841e-07
5011.6	7.55296	3.56013	8.34995	-25.2371	1221.72	0.399038	-0.00538687	8.92025	1.62159	2	38	0.00539387	0.000645976	0	-6.61276e-05	1.69924	0.883313	28.5933	2.88337e-05	4.77879e-05	2.94749e-05	3.33165e-05	3.69361e-05	3.28947e-05	0.218292	0.111674	4.90077	4.0215e-07	7.07927e-07	7.53352e-07	6.51551e-07	2.40414e-07	1.98664e-07	0.10833	0.0510621	0.119761	25.2371	1621.59	3440.27	3803.29	-64.7629	0.0000000E+000	0.0000000E+000	0.0000000E+000	64.7629	0.0000000E+000	0.0000000E+000	0.0000000E+000	-64.7629	0.0000000E+000	0.0000000E+000	0.0000000E+000	-25.2371	0.0000000E+000	0.0000000E+000	0.0000000E+000	25.2371	2.12154	64.7629	-1.58712e-06
1995.64	8.90666	6.65225	11.1167	-36.7555	1224.91	0.399043	-0.00511689	11.9886	4.29294	2	38	0.00493218	0.000443673	0	-7.08634e-05	1.9484	0.877166	32.065	3.65798e-05	2.9548e-05	3.04428e-05	2.17538e-05	5.14481e-05	4.44017e-05	0.398634	0.171334	7.12547	6.17567e-07	1.10399e-06	4.80701e-07	2.93726e-07	3.24339e-07	9.33063e-07	0.0720714	0.0538291	0.0899547	36.7555	4292.94	5747.8	7174.02	-53.2445	0.0000000E+000	0.0000000E+000	0.0000000E+000	53.2445	0.0000000E+000	0.0000000E+000	0.0000000E+000	-53.2445	0.0000000E+000	0.0000000E+000	0.0000000E+000	-36.7555	0.0000000E+000	0.0000000E+000	0.0000000E+000	36.7555	1.33889	53.2445	-8.79823e-07
794.239	10.9525	13.0488	17.0361	-49.9917	1227.88	0.399047	-0.00416173	15.3567	9.0095	2	38	0.00481817	0.000282822	0	-7.42244e-05	1.76708	0.867493	31.7767	3.41661e-05	1.17886e-05	1.34964e-05	4.82841e-05	4.7474e-05	2.53679e-05	0.719971	0.332444	11.5053	1.36438e-06	7.45298e-07	5.25551e-07	7.13279e-07	6.83426e-07	4.06834e-07	0.0377375	0.0449606	0.058699	49.9917	9009.5	7562.1	11762.5	-40.0083	0.0000000E+000	0.0000000E+000	0.0000000E+000	40.0083	0.0000000E+000	0.0000000E+000	0.0000000E+000	-40.0083	0.0000000E+000	0.0000000E+000	0.0000000E+000	-49.9917	0.0000000E+000	0.0000000E+000	0.0000000E+000	49.9917	0.839347	40.0083	-8.98794e-07
316.316	13.6723	28.0454	31.2006	-64.0104	1231.11	0.399051	-0.000491696	17.9406	14.4955	2	39	0.00490475	0.0001572	0	-7.65935e-05	1.19766	0.878286	30.4566	8.14171e-06	2.75779e-05	2.55414e-05	1.63807e-05	1.46212e-05	3.51978e-05	0.743187	0.147836	8.66996	7.85505e-07	4.32591e-07	3.46468e-07	5.75189e-07	2.50713e-07	9.78644e-08	0.0140448	0.0288095	0.0320506	64.0104	14495.5	7066.68	16126.3	-25.9896	0.0000000E+000	0.0000000E+000	0.0000000E+000	25.9896	0.0000000E+000	0.0000000E+000	0.0000000E+000	-25.9896	0.0000000E+000	0.0000000E+000	0.0000000E+000	-64.0104	0.0000000E+000	0.0000000E+000	0.0000000E+000	64.0104	0.487507	25.9896	-1.85989e-07
125.927	18.2879	63.9605	66.5236	-74.0434	1234.08	0.399054	-0.000555067	19.7602	18.2668	2	39	0.00477831	7.18288e-05	0	-7.68153e-05	1.3048	0.696459	31.3875	1.83592e-05	2.23468e-05	2.69187e-05	3.52823e-05	1.89799e-05	2.16918e-05	1.18179	0.676911	19.3327	3.8904e-07	1.78927e-07	3.08512e-07	4.1022e-07	3.6254e-07	2.95511e-07	0.0041325	0.0144531	0.0150323	74.0434	18266.8	5222.93	18998.8	-15.9566	0.0000000E+000	0.0000000E+000	0.0000000E+000	15.9566	0.0000000E+000	0.0000000E+000	0.0000000E+000	-15.9566	0.0000000E+000	0.0000000E+000	0.0000000E+000	-74.0434	0.0000000E+000	0.0000000E+000	0.0000000E+000	74.0434	0.285925	15.9566	-1.47483e-07
99.9682	19.7053	78.3654	80.8049	-75.8854	1234.82	0.39906	-0.000386953	20.3158	19.1076	2	39	0.00474328	5.87004e-05	0	-7.69339e-05	1.16694	0.885093	31.2275	2.76637e-05	2.04546e-05	2.12017e-05	2.25506e-05	2.3323e-05	1.49709e-05	1.25174	0.64191	24.07	2.74734e-07	1.78356e-07	2.56857e-07	4.30662e-07	2.52137e-07	2.74263e-07	0.00301791	0.0120019	0.0123755	75.8854	19107.6	4804.69	19702.5	-14.1146	0.0000000E+000	0.0000000E+000	0.0000000E+000	14.1146	0.0000000E+000	0.0000000E+000	0.0000000E+000	-14.1146	0.0000000E+000	0.0000000E+000	0.0000000E+000	-75.8854	0.0000000E+000	0.0000000E+000	0.0000000E+000	75.8854	0.251454	14.1146	-1.18539e-07