File: Python/Data/GoldElectrode/240308/240308-CVEIS_Activation-0p5H2SO4-Ag_AgCl_BLF8-Au_RDE-80cycles-C15_04_PEIS_C15.mpt
EC-Lab ASCII FILE
Nb header lines : 66

Potentio Electrochemical Impedance Spectroscopy

Run on channel : 15 (SN 19485)
User :
Electrode connection : standard
Potential control : Ewe
Ewe ctrl range : min = -2.50 V, max = 2.50 V
Ewe,I filtering : 50 kHz
Safety Limits :
	Do not start on E overload
Channel : Floating
Acquisition started on : 03/08/2024 16:29:18.805
Loaded Setting File :  NONE
Saved on :
	File : 240308-CVEIS_Activation-0p5H2SO4-Ag_AgCl_BLF8-Au_RDE-80cycles-C15_04_PEIS_C15.mpr
	Directory : C:\Data\mathias\GoldElectrode\
	Host : 192.168.0.1
Device : VMP-300 (SN 0826)
Address : USB
EC-Lab for windows v11.52 (software)
Internet server v11.52 (firmware)
Command interpretor v11.52 (firmware)
Electrode material :
Initial state :
Electrolyte :
Comments :
Cable : special
Electrode surface area : 0.001 cm²
Characteristic mass : 0.001 g
Equivalent Weight : 0.000 g/eq.
Density : 0.000 g/cm3
Volume (V) : 0.001 cm³
Record EIS quality indicators
Cycle Definition : Charge/Discharge alternance
Mode                Single sine
E (V)               0.0000
vs.                 Eoc
tE (h:m:s)          0:00:0.0000
record              0
dI                  0.000
unit dI             mA
dt (s)              0.000
fi                  100.000
unit fi             kHz
ff                  100.000
unit ff             Hz
Nd                  10
Points              per decade
spacing             Logarithmic
Va (mV)             5.0
pw                  0.10
Na                  2
corr                0
E range min (V)     -2.500
E range max (V)     2.500
I Range             Auto
Bandwidth           8
nc cycles           1
goto Ns'            0
nr cycles           0
inc. cycle          0

freq/Hz	Re(Z)/Ohm	-Im(Z)/Ohm	|Z|/Ohm	Phase(Z)/deg	time/s	<Ewe>/V	<I>/mA	Cs/µF	Cp/µF	cycle number	I Range	|Ewe|/V	|I|/A	Ns	(Q-Qo)/mA.h	THD Ewe/%	NSD Ewe/%	NSR Ewe/%	|Ewe h2|/V	|Ewe h3|/V	|Ewe h4|/V	|Ewe h5|/V	|Ewe h6|/V	|Ewe h7|/V	THD I/%	NSD I/%	NSR I/%	|I h2|/A	|I h3|/A	|I h4|/A	|I h5|/A	|I h6|/A	|I h7|/A	Re(Y)/Ohm-1	Im(Y)/Ohm-1	|Y|/Ohm-1	Phase(Y)/deg	Re(C)/nF	Im(C)/nF	|C|/nF	Phase(C)/deg	Re(M)	Im(M)	|M|	Phase(M)/deg	Re(Permittivity)	Im(Permittivity)	|Permittivity|	Phase(Permittivity)/deg	Re(Resistivity)/Ohm.cm	Im(Resistivity)/Ohm.cm	|Resistivity|/Ohm.cm	Phase(Resistivity)/deg	Re(Conductivity)/mS/cm	Im(Conductivity)/mS/cm	|Conductivity|/mS/cm	Phase(Conductivity)/deg	Tan(Delta)	Loss Angle(Delta)/deg	dq/mA.h
100004	6.15399	0.664888	6.18981	-6.16641	774.134	0.399127	-0.0221592	2.39362	0.0276184	1	38	0.00488152	0.000788638	0	-8.79009e-06	1.27305	1.06534	31.7816	2.30168e-05	2.60212e-05	2.68735e-05	1.91252e-05	2.17507e-05	2.58516e-05	0.249283	0.121356	3.98591	2.81833e-07	7.99728e-07	8.11406e-07	5.73832e-07	9.0169e-07	7.61957e-07	0.160621	0.0173538	0.161556	6.16641	27.6184	255.627	257.115	-83.8336	0.0000000E+000	0.0000000E+000	0.0000000E+000	83.8336	0.0000000E+000	0.0000000E+000	0.0000000E+000	-83.8336	0.0000000E+000	0.0000000E+000	0.0000000E+000	-6.16641	0.0000000E+000	0.0000000E+000	0.0000000E+000	6.16641	9.25569	83.8336	-8.79009e-06
39814.1	6.25003	0.878922	6.31153	-8.00483	777.39	0.399159	-0.0112836	4.54813	0.0881992	1	38	0.00513311	0.000813291	0	-1.9639e-05	1.74188	0.82818	30.6678	2.15207e-05	1.93573e-05	1.67869e-05	5.62886e-05	4.82237e-05	3.02218e-05	0.284653	0.139976	3.76754	7.6123e-07	1.20006e-06	5.25218e-07	1.34737e-06	8.20709e-07	7.37479e-07	0.156896	0.0220638	0.15844	8.00483	88.1992	627.186	633.358	-81.9952	0.0000000E+000	0.0000000E+000	0.0000000E+000	81.9952	0.0000000E+000	0.0000000E+000	0.0000000E+000	-81.9952	0.0000000E+000	0.0000000E+000	0.0000000E+000	-8.00483	0.0000000E+000	0.0000000E+000	0.0000000E+000	8.00483	7.11102	81.9952	-2.43248e-06
15847.7	6.56089	1.59516	6.75202	-13.6653	780.647	0.399148	-0.0107809	6.29578	0.351392	1	38	0.00512891	0.000759611	0	-2.85111e-05	1.31932	0.903561	29.1764	2.24284e-05	2.84248e-05	2.07405e-05	2.38879e-05	1.82922e-05	3.74663e-05	0.277337	0.118806	4.06186	5.90214e-07	5.45109e-07	6.08624e-07	9.46283e-07	8.41527e-07	1.09326e-06	0.143911	0.0349895	0.148104	13.6653	351.392	1445.27	1487.38	-76.3347	0.0000000E+000	0.0000000E+000	0.0000000E+000	76.3347	0.0000000E+000	0.0000000E+000	0.0000000E+000	-76.3347	0.0000000E+000	0.0000000E+000	0.0000000E+000	-13.6653	0.0000000E+000	0.0000000E+000	0.0000000E+000	13.6653	4.11299	76.3347	-2.33197e-06
6307.74	7.38821	3.15624	8.03415	-23.1322	784.023	0.399026	-0.00947195	7.99423	1.23378	1	38	0.00513624	0.000639301	0	-3.64418e-05	1.68908	0.487574	28.9673	2.68732e-05	3.04661e-05	3.96942e-05	2.28371e-05	3.67961e-05	3.93331e-05	0.255082	0.207032	4.83803	2.93807e-07	1.05085e-06	2.41648e-07	5.18994e-07	4.63108e-07	8.46158e-07	0.114462	0.0488979	0.124469	23.1322	1233.78	2888.06	3140.56	-66.8678	0.0000000E+000	0.0000000E+000	0.0000000E+000	66.8678	0.0000000E+000	0.0000000E+000	0.0000000E+000	-66.8678	0.0000000E+000	0.0000000E+000	0.0000000E+000	-23.1322	0.0000000E+000	0.0000000E+000	0.0000000E+000	23.1322	2.34083	66.8678	-2.54451e-06
2512.41	8.76658	5.83646	10.5317	-33.6542	787.23	0.399003	-0.00939934	10.8538	3.33334	1	38	0.00516977	0.000490876	0	-4.48916e-05	1.50493	1.54696	29.2207	1.98375e-05	3.45504e-05	2.15782e-05	2.76079e-05	4.06219e-05	3.20922e-05	0.465846	0.290858	6.43574	4.31745e-07	1.4364e-06	8.71196e-07	6.36365e-07	5.31136e-07	9.94347e-07	0.0790372	0.05262	0.0949512	33.6542	3333.34	5006.81	6014.92	-56.3458	0.0000000E+000	0.0000000E+000	0.0000000E+000	56.3458	0.0000000E+000	0.0000000E+000	0.0000000E+000	-56.3458	0.0000000E+000	0.0000000E+000	0.0000000E+000	-33.6542	0.0000000E+000	0.0000000E+000	0.0000000E+000	33.6542	1.50204	56.3458	-1.86185e-06
999.682	10.7197	11.131	15.4535	-46.0783	790.203	0.399006	-0.00799917	14.303	7.42059	1	38	0.00502051	0.000324879	0	-5.24035e-05	1.62403	0.984802	29.8115	2.50759e-05	2.72438e-05	5.11192e-05	1.17773e-05	3.62915e-05	1.91274e-05	0.716271	0.355454	9.60152	1.36293e-06	1.25607e-06	7.5534e-07	4.9998e-07	7.57172e-07	5.00966e-07	0.044888	0.0466101	0.0647103	46.0783	7420.59	7146.42	10302.3	-43.9217	0.0000000E+000	0.0000000E+000	0.0000000E+000	43.9217	0.0000000E+000	0.0000000E+000	0.0000000E+000	-43.9217	0.0000000E+000	0.0000000E+000	0.0000000E+000	-46.0783	0.0000000E+000	0.0000000E+000	0.0000000E+000	46.0783	0.963053	43.9218	-1.78876e-06
398.089	13.2043	23.2718	26.7568	-60.4297	793.178	0.399061	-0.00649846	17.1795	12.9957	1	38	0.00493363	0.000184387	0	-5.69398e-05	1.67723	0.976136	31.015	1.12049e-05	2.88411e-05	1.97277e-05	3.02435e-05	3.01708e-05	4.37283e-05	0.929852	0.64196	17.3444	9.39705e-07	4.88582e-07	7.67143e-07	5.59507e-07	2.56954e-07	7.99426e-07	0.0184436	0.0325057	0.0373736	60.4297	12995.7	7373.69	14941.9	-29.5703	0.0000000E+000	0.0000000E+000	0.0000000E+000	29.5703	0.0000000E+000	0.0000000E+000	0.0000000E+000	-29.5703	0.0000000E+000	0.0000000E+000	0.0000000E+000	-60.4297	0.0000000E+000	0.0000000E+000	0.0000000E+000	60.4297	0.567394	29.5703	-1.03105e-06
158.529	17.2658	52.2393	55.0187	-71.7106	796.407	0.399046	-0.00101244	19.2183	17.3256	1	39	0.00496413	9.02263e-05	0	-5.84998e-05	1.31236	0.483083	28.8732	2.57804e-05	2.68194e-05	9.07266e-06	2.06362e-05	3.30892e-05	3.14853e-05	0.644606	0.455577	15.4081	2.64335e-07	2.86351e-07	1.45178e-07	1.77218e-07	2.30392e-07	2.35022e-07	0.00570384	0.0172575	0.0181757	71.7106	17325.6	5726.36	18247.4	-18.2894	0.0000000E+000	0.0000000E+000	0.0000000E+000	18.2894	0.0000000E+000	0.0000000E+000	0.0000000E+000	-18.2894	0.0000000E+000	0.0000000E+000	0.0000000E+000	-71.7106	0.0000000E+000	0.0000000E+000	0.0000000E+000	71.7106	0.330514	18.2894	-9.65801e-08
79433.3	6.12354	0.67006	6.16009	-6.24467	800.137	0.399134	-0.00688758	2.99023	0.03538	2	38	0.00506113	0.000821601	0	-6.27377e-05	1.65313	0.938565	30.5384	3.07675e-05	4.60063e-05	2.55472e-05	2.90718e-05	9.82927e-06	4.56155e-05	0.224286	0.109199	3.81058	2.41545e-07	6.42084e-07	5.40994e-07	8.46828e-07	6.73537e-07	1.04905e-06	0.161372	0.0176579	0.162335	6.24467	35.38	323.33	325.26	-83.7553	0.0000000E+000	0.0000000E+000	0.0000000E+000	83.7553	0.0000000E+000	0.0000000E+000	0.0000000E+000	-83.7553	0.0000000E+000	0.0000000E+000	0.0000000E+000	-6.24467	0.0000000E+000	0.0000000E+000	0.0000000E+000	6.24467	9.13879	83.7553	-2.3758e-06
31621.1	6.32994	1.02166	6.41186	-9.16855	803.393	0.399135	-0.00654313	4.92647	0.125078	2	38	0.00516369	0.000805334	0	-6.61861e-05	1.79454	0.875373	30.3152	5.00486e-05	3.52178e-05	4.28761e-05	3.31123e-05	3.09583e-05	1.09106e-05	0.18982	0.0791001	3.90917	8.64347e-07	5.11288e-07	4.64466e-07	6.17543e-07	2.25694e-07	7.0489e-07	0.153968	0.0248507	0.155961	9.16855	125.078	774.951	784.98	-80.8315	0.0000000E+000	0.0000000E+000	0.0000000E+000	80.8315	0.0000000E+000	0.0000000E+000	0.0000000E+000	-80.8315	0.0000000E+000	0.0000000E+000	0.0000000E+000	-9.16855	0.0000000E+000	0.0000000E+000	0.0000000E+000	9.16855	6.19573	80.8315	-7.73444e-07
12590.9	6.66062	1.95768	6.94236	-16.379	806.65	0.399147	-0.00675167	6.45685	0.513439	2	38	0.00511098	0.000736203	0	-7.19017e-05	1.30195	1.1277	29.9356	1.12185e-05	3.26688e-05	3.74544e-05	2.10066e-05	2.06401e-05	2.34441e-05	0.262268	0.184537	4.32553	6.96616e-07	5.53887e-07	7.32943e-07	7.4741e-07	3.60636e-07	1.13396e-06	0.138198	0.0406188	0.144043	16.379	513.44	1746.88	1820.77	-73.621	0.0000000E+000	0.0000000E+000	0.0000000E+000	73.621	0.0000000E+000	0.0000000E+000	0.0000000E+000	-73.621	0.0000000E+000	0.0000000E+000	0.0000000E+000	-16.379	0.0000000E+000	0.0000000E+000	0.0000000E+000	16.379	3.40231	73.621	-9.20968e-07
5011.6	7.63428	3.70006	8.48367	-25.8578	809.968	0.399012	-0.00715385	8.58292	1.63262	2	38	0.00526677	0.000620813	0	-8.16589e-05	1.61676	0.594104	28.5686	3.46469e-05	2.59285e-05	1.27315e-05	4.37798e-05	5.43067e-05	1.31667e-05	0.297578	0.141967	5.10838	5.88595e-07	6.95697e-07	8.5267e-07	4.40172e-07	5.13083e-07	1.07603e-06	0.106072	0.0514092	0.117874	25.8578	1632.62	3368.56	3743.35	-64.1422	0.0000000E+000	0.0000000E+000	0.0000000E+000	64.1422	0.0000000E+000	0.0000000E+000	0.0000000E+000	-64.1422	0.0000000E+000	0.0000000E+000	0.0000000E+000	-25.8578	0.0000000E+000	0.0000000E+000	0.0000000E+000	25.8578	2.06329	64.1422	-1.73364e-06
1995.64	9.15304	6.88317	11.4523	-36.9435	812.94	0.399039	-0.00626198	11.5864	4.18541	2	38	0.00543257	0.000474363	0	-8.66935e-05	1.75746	0.834544	27.2453	3.73987e-05	6.04791e-05	2.69498e-05	2.48144e-05	2.61786e-05	4.03679e-05	0.43725	0.308923	6.49193	1.07335e-06	4.6822e-07	6.23503e-07	1.26937e-06	4.07317e-07	6.48848e-07	0.0697873	0.0524807	0.0873183	36.9435	4185.41	5565.64	6963.76	-53.0565	0.0000000E+000	0.0000000E+000	0.0000000E+000	53.0565	0.0000000E+000	0.0000000E+000	0.0000000E+000	-53.0565	0.0000000E+000	0.0000000E+000	0.0000000E+000	-36.9435	0.0000000E+000	0.0000000E+000	0.0000000E+000	36.9435	1.32977	53.0565	-9.25143e-07
794.239	11.3167	13.2965	17.4604	-49.5987	815.913	0.398991	-0.00532544	15.0706	8.73974	2	38	0.00529088	0.000303022	0	-9.1834e-05	1.19606	0.91641	28.5935	4.00748e-05	1.72065e-05	1.20256e-05	9.67661e-06	1.54422e-05	3.81562e-05	0.744249	0.367559	10.3963	1.5841e-06	5.83606e-07	7.34975e-07	7.88667e-07	7.81903e-07	3.82366e-07	0.0371204	0.0436144	0.0572725	49.5987	8739.74	7438.43	11476.6	-40.4013	0.0000000E+000	0.0000000E+000	0.0000000E+000	40.4013	0.0000000E+000	0.0000000E+000	0.0000000E+000	-40.4013	0.0000000E+000	0.0000000E+000	0.0000000E+000	-49.5987	0.0000000E+000	0.0000000E+000	0.0000000E+000	49.5987	0.851105	40.4013	-1.31617e-06
316.316	14.1767	28.9368	32.2229	-63.8988	819.138	0.399054	-0.000591221	17.388	14.0223	2	39	0.00544413	0.000168952	0	-9.46992e-05	1.37409	0.838383	26.9262	3.20294e-05	1.17423e-05	3.20657e-05	2.35971e-05	2.68008e-05	4.08945e-05	0.676785	0.255244	8.22458	8.72527e-07	2.72859e-07	2.37293e-07	4.5636e-07	1.18186e-07	3.12392e-07	0.0136536	0.0278689	0.0310338	63.8988	14022.3	6869.82	15614.7	-26.1012	0.0000000E+000	0.0000000E+000	0.0000000E+000	26.1012	0.0000000E+000	0.0000000E+000	0.0000000E+000	-26.1012	0.0000000E+000	0.0000000E+000	0.0000000E+000	-63.8988	0.0000000E+000	0.0000000E+000	0.0000000E+000	63.8988	0.489921	26.1012	-4.82287e-07
125.927	18.7626	64.9226	67.5794	-73.8808	822.115	0.399046	-0.000732872	19.4673	17.9667	2	39	0.00526868	7.79628e-05	0	-9.5135e-05	1.44779	0.871095	28.1069	3.33963e-05	3.13747e-05	3.80013e-05	3.34492e-05	1.65623e-05	2.26244e-05	1.35382	0.423617	18.1462	8.02499e-07	3.08376e-07	2.8597e-07	3.33043e-07	1.87032e-07	2.20655e-07	0.00410831	0.0142157	0.0147974	73.8808	17966.7	5192.37	18702	-16.1192	0.0000000E+000	0.0000000E+000	0.0000000E+000	16.1192	0.0000000E+000	0.0000000E+000	0.0000000E+000	-16.1192	0.0000000E+000	0.0000000E+000	0.0000000E+000	-73.8808	0.0000000E+000	0.0000000E+000	0.0000000E+000	73.8808	0.288999	16.1192	-2.06844e-07
99.9682	20.7494	79.9917	82.639	-75.4583	822.846	0.399023	-0.000445848	19.9028	18.648	2	39	0.0052513	6.3545e-05	0	-9.52144e-05	1.51638	0.816291	27.5417	3.32637e-05	3.74102e-05	3.27742e-05	3.79741e-05	1.55093e-05	2.16947e-05	1.30518	0.727147	21.7643	5.79658e-07	2.62741e-07	2.43772e-07	1.71177e-07	2.37372e-07	2.99326e-07	0.00303833	0.0117132	0.0121008	75.4583	18648	4837.19	19265.2	-14.5417	0.0000000E+000	0.0000000E+000	0.0000000E+000	14.5417	0.0000000E+000	0.0000000E+000	0.0000000E+000	-14.5417	0.0000000E+000	0.0000000E+000	0.0000000E+000	-75.4583	0.0000000E+000	0.0000000E+000	0.0000000E+000	75.4583	0.259394	14.5417	-7.93598e-08