File: Python/ImpedanceDataOld/different flow rate_carbon felt_full-cell vanadium tests_1.6 M total vanadium_compression ratio=30%_choose the cycle number=1 or 3/SGL 2.5EA carbon felt_ve=1 cms.mpt
EC-Lab ASCII FILE
Nb header lines : 76

Potentio Electrochemical Impedance Spectroscopy

Run on channel : 1 (SN 5680)
User :
Electrode connection : standard
Potential control : Ewe
Ewe ctrl range : min = 0.00 V, max = 5.00 V
Ewe,I filtering : 50 kHz
Safety Limits :
	Do not start on E overload
Channel : Floating
Acquisition started on : 01/21/2022 14:13:40.528
Loaded Setting File :  C:\Data\baili\Compression Ratio Tests\final\SGL 2.5 Felt ve=2\EIS_fullcell_CR0_flowthrough_C01.mpr
Saved on :
	File : EIS_fullcell_CR30_flowthrough_ve=1_C01.mpr
	Directory : C:\Data\baili\Compression Ratio Tests\final\SGL 2.5 Felt ve=2\SGL 2.5 Felt ve=other\
	Host : 192.168.0.1
Device : SP-300 (SN 0955)
Address : 192.168.0.4
EC-Lab for windows v11.36 (software)
Internet server v11.36 (firmware)
Command interpretor v11.36 (firmware)
Electrode material :
Initial state :
Electrolyte :
Comments :
Current amplifier : B-10A5V
Cable : standard
Electrode surface area : 0.001 cm2
Characteristic mass : 0.001 g
Equivalent Weight : 0.000 g/eq.
Density : 0.000 g/cm3
Volume (V) : 0.000 m3
Record Power
Cycle Definition : Charge/Discharge alternance
External device configuration :
   device type : Other
   device name : Other
   Analog OUT :
      mode : E/V
      unit : speed/rpm
      max : 150.000 at 5.000 V
      min : 0.000 at 0.000 V
      current : 32.000
Mode                Single sine
E (V)               0.0000
vs.                 Eoc
tE (h:m:s)          0:00:0.0000
record              0
dI                  0.000
unit dI             mA
dt (s)              0.000
fi                  200.000
unit fi             kHz
ff                  30.000
unit ff             mHz
Nd                  12
Points              per decade
spacing             Logarithmic
Va (mV)             10.0
pw                  0.10
Na                  3
corr                0
E range min (V)     0.000
E range max (V)     5.000
I Range             Auto
Bandwidth           8
nc cycles           3
goto Ns'            0
nr cycles           0
inc. cycle          0

freq/Hz	Re(Z)/Ohm	-Im(Z)/Ohm	|Z|/Ohm	Phase(Z)/deg	time/s	<Ewe>/V	<I>/mA	Cs/uF	Cp/uF	cycle number	I Range	|Ewe|/V	|I|/A	Ns	(Q-Qo)/mA.h	Analog OUT/V	P/W	Re(Y)/Ohm-1	Im(Y)/Ohm-1	|Y|/Ohm-1	Phase(Y)/deg	Re(C)/nF	Im(C)/nF	|C|/nF	Phase(C)/deg	Re(M)	Im(M)	|M|	Phase(M)/deg	Re(Permittivity)	Im(Permittivity)	|Permittivity|	Phase(Permittivity)/deg	Re(Resistivity)/Ohm.cm	Im(Resistivity)/Ohm.cm	|Resistivity|/Ohm.cm	Phase(Resistivity)/deg	Re(Conductivity)/mS/cm	Im(Conductivity)/mS/cm	|Conductivity|/mS/cm	Phase(Conductivity)/deg	Tan(Delta)	Loss Angle(Delta)/deg	dq/mA.h
199998	0.0697461	-0.0231878	0.0734996	18.3899	1.78248	1.3926	-13.5437	-34.319	-3.41573	1	65	0.00967985	0.131699	0	-0.00254374	32	-0.018861	12.9107	-4.2923	13.6055	-18.3899	-3415.73	10274.1	10827	-108.39	0.0000000E+000	0.0000000E+000	0.0000000E+000	108.39	0.0000000E+000	0.0000000E+000	0.0000000E+000	-108.39	0.0000000E+000	0.0000000E+000	0.0000000E+000	18.3899	0.0000000E+000	0.0000000E+000	0.0000000E+000	-18.3899	-3.00788	-18.3899	-0.00254374
75823.9	0.0741721	-0.00418918	0.0742903	3.23258	4.64748	1.39259	3.99264	-501.055	-1.59323	1	65	0.0105496	0.142005	0	-0.000875605	32	0.00556011	13.4393	-0.759039	13.4607	-3.23258	-1593.23	28209.1	28254.1	-93.2326	0.0000000E+000	0.0000000E+000	0.0000000E+000	93.2326	0.0000000E+000	0.0000000E+000	0.0000000E+000	-93.2326	0.0000000E+000	0.0000000E+000	0.0000000E+000	3.23258	0.0000000E+000	0.0000000E+000	0.0000000E+000	-3.23258	-17.7056	-3.23258	0.000133715
28744.8	0.0785767	0.00557557	0.0787743	-4.05874	7.51248	1.39259	3.88849	993.051	4.97486	1	65	0.0104427	0.132565	0	-0.000343848	32	0.00541508	12.6627	0.898505	12.6945	4.05874	4974.87	70110.9	70287.2	-85.9413	0.0000000E+000	0.0000000E+000	0.0000000E+000	85.9413	0.0000000E+000	0.0000000E+000	0.0000000E+000	-85.9413	0.0000000E+000	0.0000000E+000	0.0000000E+000	-4.05874	0.0000000E+000	0.0000000E+000	0.0000000E+000	4.05874	14.093	4.05874	0.000232566
10902.2	0.0857774	0.0119255	0.0866024	-7.91499	10.3795	1.39259	3.95109	1224.13	23.2124	1	65	0.0102631	0.118508	0	0.00358373	32	0.00550225	11.437	1.59007	11.547	7.91499	23212.4	166962	168568	-82.085	0.0000000E+000	0.0000000E+000	0.0000000E+000	82.085	0.0000000E+000	0.0000000E+000	0.0000000E+000	-82.085	0.0000000E+000	0.0000000E+000	0.0000000E+000	-7.91499	0.0000000E+000	0.0000000E+000	0.0000000E+000	7.91499	7.19279	7.91499	0.000347379
4131.32	0.0956768	0.0156592	0.0969497	-9.29505	14.0827	1.39248	3.30438	2460.15	64.181	1	65	0.0108618	0.112036	0	0.0082204	32	0.00460127	10.1792	1.666	10.3146	9.29505	64181	392143	397360	-80.7049	0.0000000E+000	0.0000000E+000	0.0000000E+000	80.7049	0.0000000E+000	0.0000000E+000	0.0000000E+000	-80.7049	0.0000000E+000	0.0000000E+000	0.0000000E+000	-9.29505	0.0000000E+000	0.0000000E+000	0.0000000E+000	9.29505	6.10994	9.29505	0.000492874
1566.51	0.107858	0.0169684	0.109185	-8.94058	17.7696	1.39248	3.6023	5987.52	144.612	1	65	0.0107408	0.0983723	0	0.012713	32	0.00501614	9.04752	1.42337	9.1588	8.94058	144612	919215	930521	-81.0594	0.0000000E+000	0.0000000E+000	0.0000000E+000	81.0594	0.0000000E+000	0.0000000E+000	0.0000000E+000	-81.0594	0.0000000E+000	0.0000000E+000	0.0000000E+000	-8.94058	0.0000000E+000	0.0000000E+000	0.0000000E+000	8.94058	6.35641	8.94058	0.000478462
593.67	0.119771	0.0137522	0.120558	-6.55006	21.2222	1.39248	3.55293	19494.1	253.662	1	65	0.0107086	0.0888255	0	0.0171396	32	0.00494737	8.24062	0.946194	8.29477	6.55006	253662	2.2092e+06	2.22371e+06	-83.4499	0.0000000E+000	0.0000000E+000	0.0000000E+000	83.4499	0.0000000E+000	0.0000000E+000	0.0000000E+000	-83.4499	0.0000000E+000	0.0000000E+000	0.0000000E+000	-6.55006	0.0000000E+000	0.0000000E+000	0.0000000E+000	6.55006	8.70923	6.55006	0.00110485
225.072	0.126443	0.00822084	0.12671	-3.71993	24.6817	1.39248	3.57659	86016.5	362.072	1	65	0.0106613	0.0841399	0	0.02234	32	0.00498034	7.87544	0.512032	7.89206	3.71993	362072	5.56894e+06	5.5807e+06	-86.2801	0.0000000E+000	0.0000000E+000	0.0000000E+000	86.2801	0.0000000E+000	0.0000000E+000	0.0000000E+000	-86.2801	0.0000000E+000	0.0000000E+000	0.0000000E+000	-3.71993	0.0000000E+000	0.0000000E+000	0.0000000E+000	3.71993	15.3807	3.71993	0.00105968
85.3553	0.129255	0.00447389	0.129332	-1.98239	28.1439	1.39248	3.8583	416777	498.728	1	65	0.0106519	0.0823606	0	0.0258844	32	0.00537262	7.72742	0.267469	7.73204	1.98239	498728	1.44087e+07	1.44173e+07	-88.0176	0.0000000E+000	0.0000000E+000	0.0000000E+000	88.0176	0.0000000E+000	0.0000000E+000	0.0000000E+000	-88.0176	0.0000000E+000	0.0000000E+000	0.0000000E+000	-1.98239	0.0000000E+000	0.0000000E+000	0.0000000E+000	1.98239	28.8908	1.98239	0.00040783
32.3499	0.130505	0.00247227	0.130529	-1.08527	31.6142	1.39245	3.60621	1.98999e+06	713.888	1	65	0.0106474	0.0815714	0	0.0295104	32	0.00502147	7.65977	0.145105	7.66115	1.08527	713891	3.76845e+07	3.76913e+07	-88.9147	0.0000000E+000	0.0000000E+000	0.0000000E+000	88.9147	0.0000000E+000	0.0000000E+000	0.0000000E+000	-88.9147	0.0000000E+000	0.0000000E+000	0.0000000E+000	-1.08527	0.0000000E+000	0.0000000E+000	0.0000000E+000	1.08527	52.7877	1.08527	0.000991458
12.2645	0.13362	0.00150367	0.133628	-0.644743	35.1618	1.39246	5.57227	8.63011e+06	1092.76	1	37	0.010652	0.0797139	0	0.0332406	32	0.00775916	7.48298	0.0842086	7.48346	0.644743	1.09276e+06	9.71054e+07	9.71115e+07	-89.3553	0.0000000E+000	0.0000000E+000	0.0000000E+000	89.3553	0.0000000E+000	0.0000000E+000	0.0000000E+000	-89.3553	0.0000000E+000	0.0000000E+000	0.0000000E+000	-0.644743	0.0000000E+000	0.0000000E+000	0.0000000E+000	0.644743	88.8624	0.644743	0.0012931
4.65029	0.134229	0.00121962	0.134234	-0.520584	38.5498	1.39245	3.70758	2.80617e+07	2316.53	1	37	0.0106556	0.0793804	0	0.0362512	32	0.00516264	7.44934	0.0676859	7.44965	0.520584	2.31653e+06	2.54952e+08	2.54962e+08	-89.4794	0.0000000E+000	0.0000000E+000	0.0000000E+000	89.4794	0.0000000E+000	0.0000000E+000	0.0000000E+000	-89.4794	0.0000000E+000	0.0000000E+000	0.0000000E+000	-0.520584	0.0000000E+000	0.0000000E+000	0.0000000E+000	0.520584	110.058	0.520584	-0.000170963
1.76354	0.134651	0.00111417	0.134656	-0.474083	45.063	1.39245	4.00013	8.09994e+07	5545.42	1	37	0.0106528	0.0791116	0	0.0458464	32	0.00556999	7.42608	0.0614471	7.42634	0.474083	5.54543e+06	6.70183e+08	6.70206e+08	-89.5259	0.0000000E+000	0.0000000E+000	0.0000000E+000	89.5259	0.0000000E+000	0.0000000E+000	0.0000000E+000	-89.5259	0.0000000E+000	0.0000000E+000	0.0000000E+000	-0.474083	0.0000000E+000	0.0000000E+000	0.0000000E+000	0.474083	120.853	0.474083	0.00351275
0.668478	0.134952	0.00154213	0.134961	-0.654702	61.7004	1.39247	4.39097	1.54388e+08	20157.5	1	37	0.0106492	0.0789056	0	0.0663367	32	0.0061143	7.40907	0.084665	7.40955	0.654702	2.01575e+07	1.76399e+09	1.76411e+09	-89.3453	0.0000000E+000	0.0000000E+000	0.0000000E+000	89.3453	0.0000000E+000	0.0000000E+000	0.0000000E+000	-89.3453	0.0000000E+000	0.0000000E+000	0.0000000E+000	-0.654702	0.0000000E+000	0.0000000E+000	0.0000000E+000	0.654702	87.5104	0.654702	0.00999832
0.253521	0.136157	0.00314102	0.136193	-1.32153	105.07	1.39247	5.18298	1.99864e+08	106309	1	37	0.0106524	0.0782157	0	0.107904	32	0.00721713	7.34057	0.169341	7.34253	1.32153	1.06309e+08	4.60825e+09	4.60948e+09	-88.6785	0.0000000E+000	0.0000000E+000	0.0000000E+000	88.6785	0.0000000E+000	0.0000000E+000	0.0000000E+000	-88.6785	0.0000000E+000	0.0000000E+000	0.0000000E+000	-1.32153	0.0000000E+000	0.0000000E+000	0.0000000E+000	1.32153	43.3479	1.32153	0.0132047
0.0960805	0.139532	0.0029705	0.139564	-1.21959	219.059	1.39244	6.63862	5.57642e+08	252621	1	37	0.0106509	0.0763156	0	0.339307	32	0.00924389	7.16356	0.152505	7.16519	1.21959	2.5262e+08	1.18663e+10	1.1869e+10	-88.7804	0.0000000E+000	0.0000000E+000	0.0000000E+000	88.7804	0.0000000E+000	0.0000000E+000	0.0000000E+000	-88.7804	0.0000000E+000	0.0000000E+000	0.0000000E+000	-1.21959	0.0000000E+000	0.0000000E+000	0.0000000E+000	1.21959	46.9726	1.21959	0.0580539
0.036443	0.141104	0.00168049	0.141114	-0.682337	519.185	1.39244	10.1007	2.59879e+09	368556	1	37	0.0106535	0.0754959	0	0.979626	32	0.0140647	7.08598	0.0843911	7.08648	0.682337	3.68555e+08	3.09462e+10	3.09483e+10	-89.3177	0.0000000E+000	0.0000000E+000	0.0000000E+000	89.3177	0.0000000E+000	0.0000000E+000	0.0000000E+000	-89.3177	0.0000000E+000	0.0000000E+000	0.0000000E+000	-0.682337	0.0000000E+000	0.0000000E+000	0.0000000E+000	0.682337	83.966	0.682337	0.253127
111760	0.0723466	-0.0100098	0.0730358	7.87738	625.409	1.39258	12.2123	-142.269	-2.67233	2	65	0.0105681	0.144697	0	1.35532	32	0.0170066	13.5627	-1.87653	13.6919	-7.87738	-2672.33	19314.4	19498.4	-97.8774	0.0000000E+000	0.0000000E+000	0.0000000E+000	97.8774	0.0000000E+000	0.0000000E+000	0.0000000E+000	-97.8774	0.0000000E+000	0.0000000E+000	0.0000000E+000	7.87738	0.0000000E+000	0.0000000E+000	0.0000000E+000	-7.87738	-7.22757	-7.87738	0.00240749
42374.9	0.0762034	0.00217071	0.0762343	-1.63167	628.275	1.39257	12.4834	1730.25	1.40286	2	65	0.010546	0.138336	0	1.36392	32	0.017384	13.1121	0.37351	13.1175	1.63167	1402.86	49247.5	49267.5	-88.3683	0.0000000E+000	0.0000000E+000	0.0000000E+000	88.3683	0.0000000E+000	0.0000000E+000	0.0000000E+000	-88.3683	0.0000000E+000	0.0000000E+000	0.0000000E+000	-1.63167	0.0000000E+000	0.0000000E+000	0.0000000E+000	1.63167	35.1052	1.63167	0.00104523
16061.1	0.0821603	0.00964002	0.0827239	-6.69203	631.141	1.39259	12.3274	1027.94	13.9592	2	65	0.0103895	0.125593	0	1.37386	32	0.017167	12.006	1.40869	12.0884	6.69203	13959.2	118972	119788	-83.308	0.0000000E+000	0.0000000E+000	0.0000000E+000	83.308	0.0000000E+000	0.0000000E+000	0.0000000E+000	-83.308	0.0000000E+000	0.0000000E+000	0.0000000E+000	-6.69203	0.0000000E+000	0.0000000E+000	0.0000000E+000	6.69203	8.52283	6.69203	0.00114992
6087.59	0.0911575	0.014427	0.092292	-8.99329	634.168	1.39247	11.7428	1812.17	44.2815	2	65	0.0108323	0.11737	0	1.38452	32	0.0163515	10.702	1.69374	10.8352	8.99329	44281.5	279794	283277	-81.0067	0.0000000E+000	0.0000000E+000	0.0000000E+000	81.0067	0.0000000E+000	0.0000000E+000	0.0000000E+000	-81.0067	0.0000000E+000	0.0000000E+000	0.0000000E+000	-8.99329	0.0000000E+000	0.0000000E+000	0.0000000E+000	8.99329	6.31854	8.99329	0.00218502