File: Python/ImpedanceDataOld/different flow rate_carbon felt_full-cell vanadium tests_1.6 M total vanadium_compression ratio=30%_choose the cycle number=1 or 3/SGL 2.5EA carbon felt_ve=0.5 cms.mpt
EC-Lab ASCII FILE
Nb header lines : 76

Potentio Electrochemical Impedance Spectroscopy

Run on channel : 1 (SN 5680)
User :
Electrode connection : standard
Potential control : Ewe
Ewe ctrl range : min = 0.00 V, max = 5.00 V
Ewe,I filtering : 50 kHz
Safety Limits :
	Do not start on E overload
Channel : Floating
Acquisition started on : 01/21/2022 13:21:12.055
Loaded Setting File :  C:\Data\baili\Compression Ratio Tests\final\SGL 2.5 Felt ve=2\EIS_fullcell_CR10_flowthrough_C01.mpr
Saved on :
	File : EIS_fullcell_CR30_flowthrough_ve=0.5_C01.mpr
	Directory : C:\Data\baili\Compression Ratio Tests\final\SGL 2.5 Felt ve=2\SGL 2.5 Felt ve=other\
	Host : 192.168.0.1
Device : SP-300 (SN 0955)
Address : 192.168.0.4
EC-Lab for windows v11.36 (software)
Internet server v11.36 (firmware)
Command interpretor v11.36 (firmware)
Electrode material :
Initial state :
Electrolyte :
Comments :
Current amplifier : B-10A5V
Cable : standard
Electrode surface area : 0.001 cm2
Characteristic mass : 0.001 g
Equivalent Weight : 0.000 g/eq.
Density : 0.000 g/cm3
Volume (V) : 0.000 m3
Record Power
Cycle Definition : Charge/Discharge alternance
External device configuration :
   device type : Other
   device name : Other
   Analog OUT :
      mode : E/V
      unit : speed/rpm
      max : 150.000 at 5.000 V
      min : 0.000 at 0.000 V
      current : 32.000
Mode                Single sine
E (V)               0.0000
vs.                 Eoc
tE (h:m:s)          0:00:0.0000
record              0
dI                  0.000
unit dI             mA
dt (s)              0.000
fi                  200.000
unit fi             kHz
ff                  30.000
unit ff             mHz
Nd                  12
Points              per decade
spacing             Logarithmic
Va (mV)             10.0
pw                  0.10
Na                  3
corr                0
E range min (V)     0.000
E range max (V)     5.000
I Range             Auto
Bandwidth           8
nc cycles           3
goto Ns'            0
nr cycles           0
inc. cycle          0

freq/Hz	Re(Z)/Ohm	-Im(Z)/Ohm	|Z|/Ohm	Phase(Z)/deg	time/s	<Ewe>/V	<I>/mA	Cs/uF	Cp/uF	cycle number	I Range	|Ewe|/V	|I|/A	Ns	(Q-Qo)/mA.h	Analog OUT/V	P/W	Re(Y)/Ohm-1	Im(Y)/Ohm-1	|Y|/Ohm-1	Phase(Y)/deg	Re(C)/nF	Im(C)/nF	|C|/nF	Phase(C)/deg	Re(M)	Im(M)	|M|	Phase(M)/deg	Re(Permittivity)	Im(Permittivity)	|Permittivity|	Phase(Permittivity)/deg	Re(Resistivity)/Ohm.cm	Im(Resistivity)/Ohm.cm	|Resistivity|/Ohm.cm	Phase(Resistivity)/deg	Re(Conductivity)/mS/cm	Im(Conductivity)/mS/cm	|Conductivity|/mS/cm	Phase(Conductivity)/deg	Tan(Delta)	Loss Angle(Delta)/deg	dq/mA.h
199998	0.0706584	-0.0232672	0.0743907	18.2262	1.78449	1.39029	-13.551	-34.2019	-3.34581	1	65	0.00981865	0.131988	0	-0.00284193	32	-0.0188397	12.7681	-4.20442	13.4425	-18.2262	-3345.81	10160.6	10697.3	-108.226	0.0000000E+000	0.0000000E+000	0.0000000E+000	108.226	0.0000000E+000	0.0000000E+000	0.0000000E+000	-108.226	0.0000000E+000	0.0000000E+000	0.0000000E+000	18.2262	0.0000000E+000	0.0000000E+000	0.0000000E+000	-18.2262	-3.03683	-18.2262	-0.00284193
42374.9	0.0774611	0.00221092	0.0774926	-1.63491	6.37149	1.39028	3.80427	1698.79	1.38281	1	65	0.0105008	0.135508	0	-0.000725033	32	0.00528902	12.8992	0.368172	12.9045	1.63491	1382.81	48447.8	48467.5	-88.3651	0.0000000E+000	0.0000000E+000	0.0000000E+000	88.3651	0.0000000E+000	0.0000000E+000	0.0000000E+000	-88.3651	0.0000000E+000	0.0000000E+000	0.0000000E+000	-1.63491	0.0000000E+000	0.0000000E+000	0.0000000E+000	1.63491	35.0358	1.63491	0.000669979
8974.76	0.0884936	0.0127323	0.0894048	-8.18744	10.9791	1.39019	3.38077	1392.8	28.2477	1	65	0.0103906	0.11622	0	0.00690604	32	0.0046999	11.0711	1.59289	11.1851	8.18744	28247.7	196330	198352	-81.8126	0.0000000E+000	0.0000000E+000	0.0000000E+000	81.8126	0.0000000E+000	0.0000000E+000	0.0000000E+000	-81.8126	0.0000000E+000	0.0000000E+000	0.0000000E+000	-8.18744	0.0000000E+000	0.0000000E+000	0.0000000E+000	8.18744	6.95031	8.18744	0.00170049
1901.83	0.106035	0.0170074	0.10739	-9.1123	17.0816	1.39019	3.44058	4920.53	123.412	1	65	0.010636	0.0990412	0	0.0136718	32	0.00478304	9.19434	1.47472	9.31186	9.1123	123412	769431	779265	-80.8877	0.0000000E+000	0.0000000E+000	0.0000000E+000	80.8877	0.0000000E+000	0.0000000E+000	0.0000000E+000	-80.8877	0.0000000E+000	0.0000000E+000	0.0000000E+000	-9.1123	0.0000000E+000	0.0000000E+000	0.0000000E+000	9.1123	6.23464	9.1123	0.000978081
402.809	0.123602	0.0114822	0.124134	-5.30738	22.6118	1.39017	3.91364	34410.8	294.42	1	65	0.0106085	0.0854599	0	0.0198212	32	0.00544063	8.02129	0.745154	8.05583	5.30738	294420	3.16931e+06	3.18296e+06	-84.6926	0.0000000E+000	0.0000000E+000	0.0000000E+000	84.6926	0.0000000E+000	0.0000000E+000	0.0000000E+000	-84.6926	0.0000000E+000	0.0000000E+000	0.0000000E+000	-5.30738	0.0000000E+000	0.0000000E+000	0.0000000E+000	5.30738	10.7646	5.30738	0.00046853
85.3553	0.129697	0.00441501	0.129772	-1.94966	28.1469	1.39018	4.00456	422336	488.834	1	65	0.010575	0.0814895	0	0.0254231	32	0.00556707	7.70138	0.262163	7.70584	1.94966	488833	1.43601e+07	1.43684e+07	-88.0503	0.0000000E+000	0.0000000E+000	0.0000000E+000	88.0503	0.0000000E+000	0.0000000E+000	0.0000000E+000	-88.0503	0.0000000E+000	0.0000000E+000	0.0000000E+000	-1.94966	0.0000000E+000	0.0000000E+000	0.0000000E+000	1.94966	29.3763	1.94966	0.000522354
18.0845	0.131436	0.00185106	0.131449	-0.806864	33.6619	1.39019	4.02562	4.75438e+06	942.803	1	65	0.0105754	0.0804525	0	0.0322682	32	0.00559636	7.60678	0.107129	7.60753	0.806864	942800	6.69444e+07	6.69511e+07	-89.1931	0.0000000E+000	0.0000000E+000	0.0000000E+000	89.1931	0.0000000E+000	0.0000000E+000	0.0000000E+000	-89.1931	0.0000000E+000	0.0000000E+000	0.0000000E+000	-0.806864	0.0000000E+000	0.0000000E+000	0.0000000E+000	0.806864	71.0058	0.806864	0.000817215
3.82966	0.134883	0.00126699	0.134889	-0.538177	39.4279	1.39018	3.98787	3.2801e+07	2893.87	1	37	0.0105827	0.0784548	0	0.0388635	32	0.00554386	7.41317	0.0696336	7.4135	0.538177	2.89388e+06	3.0808e+08	3.08094e+08	-89.4618	0.0000000E+000	0.0000000E+000	0.0000000E+000	89.4618	0.0000000E+000	0.0000000E+000	0.0000000E+000	-89.4618	0.0000000E+000	0.0000000E+000	0.0000000E+000	-0.538177	0.0000000E+000	0.0000000E+000	0.0000000E+000	0.538177	106.46	0.538177	0.000935346
0.811689	0.135567	0.00163064	0.135577	-0.689136	57.0004	1.39019	4.01431	1.20247e+08	17394.7	1	37	0.0105824	0.0780542	0	0.0550411	32	0.00558065	7.37535	0.0887127	7.37588	0.689136	1.73946e+07	1.44615e+09	1.44625e+09	-89.3109	0.0000000E+000	0.0000000E+000	0.0000000E+000	89.3109	0.0000000E+000	0.0000000E+000	0.0000000E+000	-89.3109	0.0000000E+000	0.0000000E+000	0.0000000E+000	-0.689136	0.0000000E+000	0.0000000E+000	0.0000000E+000	0.689136	83.1375	0.689136	0.000991475
0.172002	0.137072	0.00435743	0.137141	-1.82078	138.084	1.39017	4.87722	2.12352e+08	214378	1	37	0.0105813	0.0771561	0	0.139801	32	0.0067802	7.28807	0.231683	7.29175	1.82078	2.14378e+08	6.74372e+09	6.74712e+09	-88.1792	0.0000000E+000	0.0000000E+000	0.0000000E+000	88.1792	0.0000000E+000	0.0000000E+000	0.0000000E+000	-88.1792	0.0000000E+000	0.0000000E+000	0.0000000E+000	-1.82078	0.0000000E+000	0.0000000E+000	0.0000000E+000	1.82078	31.4571	1.82078	0.0149788
0.036443	0.145983	0.00457757	0.146055	-1.79602	519.185	1.39018	9.16543	9.54051e+08	937148	1	37	0.0105812	0.0724466	0	0.862348	32	0.0127416	6.84337	0.214586	6.84673	1.79602	9.37146e+08	2.98866e+10	2.99013e+10	-88.204	0.0000000E+000	0.0000000E+000	0.0000000E+000	88.204	0.0000000E+000	0.0000000E+000	0.0000000E+000	-88.204	0.0000000E+000	0.0000000E+000	0.0000000E+000	-1.79602	0.0000000E+000	0.0000000E+000	0.0000000E+000	1.79602	31.891	1.79602	0.155552
62453.6	0.0755074	-0.00183225	0.0755296	1.39006	626.973	1.39028	11.5155	-1390.84	-0.818488	2	65	0.0105663	0.139896	0	1.11055	32	0.0160097	13.2359	-0.321181	13.2398	-1.39006	-818.486	33730.1	33740	-91.3901	0.0000000E+000	0.0000000E+000	0.0000000E+000	91.3901	0.0000000E+000	0.0000000E+000	0.0000000E+000	-91.3901	0.0000000E+000	0.0000000E+000	0.0000000E+000	1.39006	0.0000000E+000	0.0000000E+000	0.0000000E+000	-1.39006	-41.2102	-1.39006	0.000296095
13231.1	0.0847764	0.0107642	0.0854571	-7.23618	631.557	1.39028	11.2365	1117.49	17.7299	2	65	0.01034	0.120996	0	1.12625	32	0.0156219	11.6086	1.47395	11.7018	7.23618	17729.9	139637	140759	-82.7638	0.0000000E+000	0.0000000E+000	0.0000000E+000	82.7638	0.0000000E+000	0.0000000E+000	0.0000000E+000	-82.7638	0.0000000E+000	0.0000000E+000	0.0000000E+000	-7.23618	0.0000000E+000	0.0000000E+000	0.0000000E+000	7.23618	7.87581	7.23618	0.00207675
2802.31	0.100955	0.0166352	0.102317	-9.35702	637.008	1.39016	10.8283	3414.09	90.2485	2	65	0.010672	0.104304	0	1.14171	32	0.0150531	9.64354	1.58905	9.77358	9.35702	90248.5	547696	555082	-80.643	0.0000000E+000	0.0000000E+000	0.0000000E+000	80.643	0.0000000E+000	0.0000000E+000	0.0000000E+000	-80.643	0.0000000E+000	0.0000000E+000	0.0000000E+000	-9.35702	0.0000000E+000	0.0000000E+000	0.0000000E+000	9.35702	6.06876	9.35702	0.00199185
593.67	0.120225	0.013898	0.121026	-6.59411	642.531	1.39017	10.7053	19289.5	254.372	2	65	0.0105897	0.0874996	0	1.15783	32	0.0148823	8.20803	0.948845	8.26269	6.59411	254373	2.20046e+06	2.21511e+06	-83.4059	0.0000000E+000	0.0000000E+000	0.0000000E+000	83.4059	0.0000000E+000	0.0000000E+000	0.0000000E+000	-83.4059	0.0000000E+000	0.0000000E+000	0.0000000E+000	-6.59411	0.0000000E+000	0.0000000E+000	0.0000000E+000	6.59411	8.65054	6.59411	0.00244636
125.764	0.129059	0.00567619	0.129184	-2.51832	648.065	1.39017	10.8881	222949	430.431	2	65	0.0105415	0.0816006	0	1.17503	32	0.0151364	7.73343	0.340127	7.7409	2.51832	430431	9.78667e+06	9.79613e+06	-87.4817	0.0000000E+000	0.0000000E+000	0.0000000E+000	87.4817	0.0000000E+000	0.0000000E+000	0.0000000E+000	-87.4817	0.0000000E+000	0.0000000E+000	0.0000000E+000	-2.51832	0.0000000E+000	0.0000000E+000	0.0000000E+000	2.51832	22.7369	2.51832	0.00169656
26.6457	0.131431	0.00233541	0.131452	-1.01799	653.574	1.39019	11.1018	2.55759e+06	807.279	2	65	0.0105441	0.0802129	0	1.19277	32	0.0154337	7.60616	0.135154	7.60736	1.01799	807276	4.54317e+07	4.54389e+07	-88.982	0.0000000E+000	0.0000000E+000	0.0000000E+000	88.982	0.0000000E+000	0.0000000E+000	0.0000000E+000	-88.982	0.0000000E+000	0.0000000E+000	0.0000000E+000	-1.01799	0.0000000E+000	0.0000000E+000	0.0000000E+000	1.01799	56.2776	1.01799	0.00207957
5.64487	0.134738	0.00124962	0.134744	-0.531372	659.12	1.39017	10.5105	2.25625e+07	1940.56	2	37	0.0105401	0.0782228	0	1.2101	32	0.0146114	7.42116	0.0688272	7.42148	0.531372	1.94056e+06	2.09237e+08	2.09246e+08	-89.4686	0.0000000E+000	0.0000000E+000	0.0000000E+000	89.4686	0.0000000E+000	0.0000000E+000	0.0000000E+000	-89.4686	0.0000000E+000	0.0000000E+000	0.0000000E+000	-0.531372	0.0000000E+000	0.0000000E+000	0.0000000E+000	0.531372	107.823	0.531372	0.00191166
1.19622	0.135664	0.00131417	0.13567	-0.555005	671.223	1.39017	10.6745	1.01241e+08	9499.28	2	37	0.0105433	0.0777125	0	1.24843	32	0.0148394	7.37046	0.0713973	7.3708	0.555005	9.49934e+06	9.80626e+08	9.80672e+08	-89.445	0.0000000E+000	0.0000000E+000	0.0000000E+000	89.445	0.0000000E+000	0.0000000E+000	0.0000000E+000	-89.445	0.0000000E+000	0.0000000E+000	0.0000000E+000	-0.555005	0.0000000E+000	0.0000000E+000	0.0000000E+000	0.555005	103.232	0.555005	0.00952684
0.253521	0.136579	0.00315783	0.136616	-1.32449	726.379	1.39019	11.3383	1.98801e+08	106217	2	37	0.0105398	0.0771491	0	1.42395	32	0.0157625	7.31784	0.169194	7.3198	1.32449	1.06216e+08	4.59398e+09	4.59521e+09	-88.6755	0.0000000E+000	0.0000000E+000	0.0000000E+000	88.6755	0.0000000E+000	0.0000000E+000	0.0000000E+000	-88.6755	0.0000000E+000	0.0000000E+000	0.0000000E+000	-1.32449	0.0000000E+000	0.0000000E+000	0.0000000E+000	1.32449	43.2511	1.32449	0.0356827
0.116619	0.13891	0.00614974	0.139046	-2.5349	808.024	1.39018	12.0794	2.21919e+08	434100	2	37	0.0105388	0.0757935	0	1.65898	32	0.0167926	7.18481	0.318081	7.19185	2.5349	4.341e+08	9.80545e+09	9.81505e+09	-87.4651	0.0000000E+000	0.0000000E+000	0.0000000E+000	87.4651	0.0000000E+000	0.0000000E+000	0.0000000E+000	-87.4651	0.0000000E+000	0.0000000E+000	0.0000000E+000	-2.5349	0.0000000E+000	0.0000000E+000	0.0000000E+000	2.5349	22.588	2.5349	0.0903856