File: Python/Experiments/Baichen/IronSymmetricNIPSElectrode/FTFF/Data/ve=1cms.txt
freq/Hz	Re(Z)/Ohm	-Im(Z)/Ohm	|Z|/Ohm	Phase(Z)/deg	time/s	cycle number
199998	0.196687	-0.147746	0.245997	36.9128	1.73948	1
149393	0.204958	-0.108861	0.232075	27.9745	2.5635	1
111593	0.207811	-0.0799514	0.222661	21.0433	3.38748	1
83358.1	0.208461	-0.0578981	0.216352	15.5221	4.34848	1
62258.8	0.209046	-0.0419049	0.213205	11.3351	6.40549	1
46782.2	0.209986	-0.0301715	0.212143	8.17647	7.50349	1
34989.2	0.21075	-0.0209166	0.211786	5.66793	8.32747	1
26165.4	0.211892	-0.0140087	0.212355	3.78245	9.15148	1
19568.4	0.21312	-0.00886791	0.213305	2.3827	9.97549	1
14632.2	0.214194	-0.00512641	0.214255	1.37103	10.7995	1
10939.4	0.215581	-0.00238484	0.215594	0.633803	11.6235	1
8179.21	0.21649	-0.000310854	0.216491	0.0822696	12.5411	1
6121.38	0.21773	0.00109822	0.217732	-0.288995	13.6927	1
4576.46	0.218825	0.00212257	0.218835	-0.555744	15.0307	1
3421.09	0.219939	0.002736	0.219956	-0.712712	16.1467	1
2570.82	0.220902	0.00301089	0.220922	-0.780894	17.4837	1
1913.16	0.221844	0.00319076	0.221867	-0.824022	18.5999	1
1432.29	0.222563	0.00318765	0.222586	-0.820562	19.7154	1
1070.34	0.223218	0.00316007	0.22324	-0.811076	20.8307	1
800.256	0.223954	0.00314756	0.223976	-0.805209	21.9467	1
598.659	0.224532	0.00299768	0.224552	-0.764898	23.0662	1
447.85	0.224986	0.00297087	0.225006	-0.756526	24.1867	1
334.679	0.225545	0.00304356	0.225566	-0.773115	25.303	1
250.401	0.225978	0.00312848	0.226	-0.793161	26.4184	1
187.217	0.226516	0.00309161	0.226537	-0.781954	27.5224	1
140.045	0.226944	0.00343839	0.22697	-0.868014	28.6377	1
104.765	0.227465	0.00369549	0.227495	-0.93077	29.7572	1
78.3208	0.228105	0.00409187	0.228142	-1.02769	30.8941	1
58.5938	0.228654	0.00446014	0.228698	-1.11747	32.0346	1
43.7811	0.229355	0.00492005	0.229408	-1.2289	33.1783	1
32.747	0.230048	0.00540192	0.230112	-1.34515	34.3635	1
24.506	0.231038	0.00625	0.231122	-1.54958	35.4988	1
18.3392	0.231931	0.00705094	0.232038	-1.74131	36.7059	1
13.6901	0.233027	0.00800721	0.233164	-1.96801	37.9169	1
10.2392	0.234349	0.00919665	0.234529	-2.24733	39.0101	1
7.65931	0.235824	0.0104887	0.236057	-2.54666	40.4329	1
5.72764	0.237483	0.0120766	0.237789	-2.91113	41.4233	1
4.28317	0.239338	0.0138994	0.239742	-3.32368	42.7083	1
3.20184	0.241453	0.0160033	0.241983	-3.79197	44.3892	1
2.39794	0.244115	0.0185183	0.244817	-4.33809	46.5989	1
1.79186	0.247357	0.021177	0.248262	-4.89333	49.5261	1
1.33959	0.250679	0.0244996	0.251873	-5.58196	53.4127	1
1.00237	0.254759	0.0279632	0.256289	-6.2639	59.6239	1
0.750048	0.259573	0.0320165	0.26154	-7.03151	66.5017	1
0.559956	0.264935	0.0362852	0.267409	-7.79864	75.6895	1
0.418766	0.271696	0.0409692	0.274768	-8.57506	87.9481	1
0.313252	0.277701	0.0464858	0.281565	-9.50292	104.312	1
0.234567	0.284155	0.0522538	0.28892	-10.4198	126.142	1
0.175514	0.291114	0.0594951	0.297131	-11.5505	155.295	1
0.130994	0.298762	0.0699393	0.306839	-13.1755	194.333	1
0.0980091	0.307051	0.0840051	0.318335	-15.301	246.487	1
0.0732907	0.317714	0.101501	0.333534	-17.7173	316.211	1
0.0547723	0.333653	0.12352	0.355783	-20.3148	409.486	1
0.040958	0.356649	0.150662	0.387166	-22.901	534.201	1
0.0306507	0.388254	0.180867	0.428315	-24.9783	700.834	1
0.0229122	0.433908	0.208551	0.481425	-25.6705	923.726	1
0.0171417	0.492633	0.227424	0.542595	-24.7804	1221.63	1
0.0128333	0.558787	0.231565	0.604868	-22.5094	1619.53	1
0.00959514	0.622969	0.215354	0.659142	-19.0698	2151.68	1
0.00717595	0.671895	0.18536	0.696994	-15.423	2863.22	1
0.0053664	0.704742	0.154347	0.721446	-12.3534	3814.67	1
0.00401319	0.726098	0.125528	0.736868	-9.80835	5086.92	1
0.00300081	0.741048	0.100861	0.74788	-7.7507	6788.37	1