File: Python/Experiments/IRFB/240503-Felt-1p5M_FeCl2FeCl3-1M_HCl/Data/240503-EIS-Felt-1p5M_FeCl2FeCl3-1M_HCl-Wamup_10mLmin-4xFlowRate-20mHz_10ppd_03_PEIS_C15.mpt
EC-Lab ASCII FILE
Nb header lines : 75

Potentio Electrochemical Impedance Spectroscopy

Run on channel : 15 (SN 19485)
User :
Electrode connection : standard
Potential control : Ewe
Ewe ctrl range : min = -1.00 V, max = 1.00 V
Ewe,I filtering : 50 kHz
Safety Limits :
	Do not start on E overload
Channel : Grounded
Acquisition started on : 05/03/2024 14:39:22.131
Loaded Setting File :  NONE
Saved on :
	File : 240503-EIS-Felt-1p5M_FeCl2FeCl3-1M_HCl-Wamup_10mLmin-4xFlowRate-20mHz_10ppd_03_PEIS_C15.mpr
	Directory : C:\Data\mathias\IRFB\
	Host : 192.168.0.1
Device : VMP-300 (SN 0826)
Address : USB
EC-Lab for windows v11.52 (software)
Internet server v11.52 (firmware)
Command interpretor v11.52 (firmware)
Electrode material :
Initial state :
Electrolyte :
Comments :
Cable : special
Electrode surface area : 0.001 cm²
Characteristic mass : 0.001 g
Equivalent Weight : 0.000 g/eq.
Density : 0.000 g/cm3
Volume (V) : 0.001 cm³
Record EIS quality indicators
Cycle Definition : Charge/Discharge alternance
External device configuration :
   device type : Other
   device name : Other
   Analog OUT :
      mode : E/V
      unit : KNF Pump/ml/min
      max : 120.000 at 5.000 V
      min : 0.000 at 0.000 V
      current : 14.000
Mode                Single sine
E (V)               0.0000
vs.                 Eoc
tE (h:m:s)          0:10:0.0000
record              0
dI                  0.000
unit dI             mA
dt (s)              0.000
fi                  220.000
unit fi             kHz
ff                  20.000
unit ff             mHz
Nd                  10
Points              per decade
spacing             Logarithmic
Va (mV)             5.0
pw                  0.10
Na                  3
corr                0
E range min (V)     -1.000
E range max (V)     1.000
I Range             Auto
Bandwidth           8
nc cycles           2
goto Ns'            0
nr cycles           0
inc. cycle          0

freq/Hz	Re(Z)/Ohm	-Im(Z)/Ohm	|Z|/Ohm	Phase(Z)/deg	time/s	<Ewe>/V	<I>/mA	Cs/µF	Cp/µF	cycle number	I Range	|Ewe|/V	|I|/A	Ns	(Q-Qo)/mA.h	Analog OUT/V	THD Ewe/%	NSD Ewe/%	NSR Ewe/%	|Ewe h2|/V	|Ewe h3|/V	|Ewe h4|/V	|Ewe h5|/V	|Ewe h6|/V	|Ewe h7|/V	THD I/%	NSD I/%	NSR I/%	|I h2|/A	|I h3|/A	|I h4|/A	|I h5|/A	|I h6|/A	|I h7|/A	Re(Y)/Ohm-1	Im(Y)/Ohm-1	|Y|/Ohm-1	Phase(Y)/deg	Re(C)/nF	Im(C)/nF	|C|/nF	Phase(C)/deg	Re(M)	Im(M)	|M|	Phase(M)/deg	Re(Permittivity)	Im(Permittivity)	|Permittivity|	Phase(Permittivity)/deg	Re(Resistivity)/Ohm.cm	Im(Resistivity)/Ohm.cm	|Resistivity|/Ohm.cm	Phase(Resistivity)/deg	Re(Conductivity)/mS/cm	Im(Conductivity)/mS/cm	|Conductivity|/mS/cm	Phase(Conductivity)/deg	Tan(Delta)	Loss Angle(Delta)/deg	dq/mA.h
220003	0.0916909	-0.0195015	0.0937418	12.0072	248357	-0.000341964	-1.80457	-37.0958	-1.60544	1	37	0.0033081	0.0352894	0	-0.437884	14	-1	-1	-1	0	0	0	0	0	0	-1	-1	-1	0	0	0	0	0	0	10.4342	-2.21922	10.6676	-12.0072	-1605.44	7548.35	7717.18	-102.007	0.0000000E+000	0.0000000E+000	0.0000000E+000	102.007	0.0000000E+000	0.0000000E+000	0.0000000E+000	-102.007	0.0000000E+000	0.0000000E+000	0.0000000E+000	12.0072	0.0000000E+000	0.0000000E+000	0.0000000E+000	-12.0072	4.70174	77.9928	-0.437884
8590.41	0.108808	0.00657341	0.109007	-3.45719	248373	-0.000450602	-2.68753	2818.48	10.2492	1	37	0.00525784	0.048234	0	-0.446309	14	0.286111	0.154104	5.61342	7.15882e-06	5.96249e-06	8.28065e-06	4.69747e-06	2.44004e-06	3.89093e-06	0.105361	0.0583229	0.412859	1.59228e-05	4.66687e-05	2.50994e-06	1.00924e-05	5.33327e-06	1.67798e-06	9.15704	0.553202	9.17374	3.45719	10249.2	169653	169962	-86.5428	0.0000000E+000	0.0000000E+000	0.0000000E+000	86.5428	0.0000000E+000	0.0000000E+000	0.0000000E+000	-86.5428	0.0000000E+000	0.0000000E+000	0.0000000E+000	-3.45719	0.0000000E+000	0.0000000E+000	0.0000000E+000	3.45719	16.5528	86.5428	-0.000707549
335.537	0.119569	0.00255754	0.119596	-1.22535	248391	-0.000438877	-2.60383	185463	84.8137	1	37	0.00506451	0.0423467	0	-0.459497	14	0.285751	0.215369	5.93599	6.27532e-06	5.97977e-06	7.64286e-06	4.38787e-06	5.54467e-06	4.80725e-06	0.0815682	0.0155664	0.457172	6.92957e-06	2.85691e-05	2.84128e-06	1.41374e-05	8.94796e-06	4.70669e-06	8.35954	0.178808	8.36145	1.22535	84813.6	3.96517e+06	3.96608e+06	-88.7747	0.0000000E+000	0.0000000E+000	0.0000000E+000	88.7747	0.0000000E+000	0.0000000E+000	0.0000000E+000	-88.7747	0.0000000E+000	0.0000000E+000	0.0000000E+000	-1.22535	0.0000000E+000	0.0000000E+000	0.0000000E+000	1.22535	46.7516	88.7747	-0.00094153
13.1083	0.122056	0.00146059	0.122065	-0.685599	248407	-0.000411662	-2.52727	8.31282e+06	1190.21	1	37	0.00511806	0.0419291	0	-0.470609	14	0.417087	0.157398	4.0533	1.22789e-05	5.02554e-06	9.24833e-06	5.01233e-06	1.02656e-05	5.62017e-06	0.100302	0.0623558	0.331066	4.0166e-06	2.95912e-05	5.90895e-06	2.69362e-05	6.12183e-06	5.57626e-06	8.1918	0.0980274	8.19238	0.685599	1.19021e+06	9.94614e+07	9.94685e+07	-89.3144	0.0000000E+000	0.0000000E+000	0.0000000E+000	89.3144	0.0000000E+000	0.0000000E+000	0.0000000E+000	-89.3144	0.0000000E+000	0.0000000E+000	0.0000000E+000	-0.685599	0.0000000E+000	0.0000000E+000	0.0000000E+000	0.685599	83.5664	89.3144	-0.00103024
0.511825	0.125719	0.00630443	0.125877	-2.87081	248468	-0.000406802	-2.54124	4.93234e+07	123724	1	37	0.00511642	0.0406463	0	-0.515363	14	0.114733	0.0905304	0.950311	1.92598e-06	3.64017e-06	1.25672e-06	2.9487e-06	1.96665e-06	1.41664e-06	0.167394	0.0945143	0.195238	2.22827e-05	4.25395e-05	9.53225e-06	3.70396e-05	1.39607e-05	1.12034e-05	7.93431	0.397883	7.94428	2.87081	1.23724e+08	2.46722e+09	2.47032e+09	-87.1292	0.0000000E+000	0.0000000E+000	0.0000000E+000	87.1292	0.0000000E+000	0.0000000E+000	0.0000000E+000	-87.1292	0.0000000E+000	0.0000000E+000	0.0000000E+000	-2.87081	0.0000000E+000	0.0000000E+000	0.0000000E+000	2.87081	19.9413	87.1292	-0.0135927
0.0199946	0.156107	0.00691213	0.15626	-2.53529	249891	-0.000406579	-2.55664	1.15158e+09	2.25332e+06	1	37	0.00510543	0.0326726	0	-1.57189	14	0.100431	0.110791	0.238757	2.59318e-06	3.05764e-06	1.0602e-06	2.70931e-06	7.99042e-07	4.20957e-07	0.14019	0.122481	0.525957	2.42625e-05	2.33173e-05	4.11778e-06	2.90087e-05	6.53371e-06	2.49351e-06	6.39332	0.283084	6.39959	2.53529	2.25332e+09	5.08902e+10	5.09401e+10	-87.4647	0.0000000E+000	0.0000000E+000	0.0000000E+000	87.4647	0.0000000E+000	0.0000000E+000	0.0000000E+000	-87.4647	0.0000000E+000	0.0000000E+000	0.0000000E+000	-2.53529	0.0000000E+000	0.0000000E+000	0.0000000E+000	2.53529	22.5845	87.4647	-0.230896
10837.3	0.10743	0.00643428	0.107622	-3.42751	249907	-0.000307945	-1.73653	2282.44	8.15819	2	37	0.00514871	0.0478405	0	-1.57885	14	0.315624	0.240788	5.79554	6.43842e-06	5.75186e-06	4.36233e-06	6.93966e-06	8.28501e-06	6.02431e-06	0.0768921	0.0302528	0.401013	4.80712e-06	3.55803e-05	3.63142e-06	3.22252e-06	4.53274e-06	3.65837e-06	9.27512	0.555513	9.29174	3.42751	8158.19	136213	136457	-86.5725	0.0000000E+000	0.0000000E+000	0.0000000E+000	86.5725	0.0000000E+000	0.0000000E+000	0.0000000E+000	-86.5725	0.0000000E+000	0.0000000E+000	0.0000000E+000	-3.42751	0.0000000E+000	0.0000000E+000	0.0000000E+000	3.42751	16.6965	86.5725	-0.000478393
423.239	0.119231	0.00290161	0.119266	-1.39408	249925	-0.000404877	-2.44677	129597	76.7081	2	37	0.00547823	0.0459329	0	-1.59135	14	0.271378	0.180932	5.48797	7.92654e-06	6.094e-06	4.80582e-06	5.78104e-06	4.79622e-06	3.93412e-06	0.0497729	0.0222733	0.417752	2.95155e-06	1.78809e-05	4.39491e-06	1.18931e-05	2.94326e-06	2.79163e-06	8.38215	0.203989	8.38463	1.39408	76708	3.15202e+06	3.15296e+06	-88.6059	0.0000000E+000	0.0000000E+000	0.0000000E+000	88.6059	0.0000000E+000	0.0000000E+000	0.0000000E+000	-88.6059	0.0000000E+000	0.0000000E+000	0.0000000E+000	-1.39408	0.0000000E+000	0.0000000E+000	0.0000000E+000	1.39408	41.0911	88.6059	-0.00078904
16.5286	0.121892	0.00144349	0.1219	-0.678486	249941	-0.000390095	-2.39321	6.6707e+06	935.378	2	37	0.0051185	0.0419892	0	-1.6024	14	0.29995	0.121029	5.88617	5.63548e-06	7.46487e-06	5.50279e-06	7.00748e-06	3.14851e-06	4.57072e-06	0.121803	0.0498441	0.457894	5.12296e-06	3.93699e-05	4.08451e-06	2.86298e-05	9.03272e-06	8.57394e-06	8.20285	0.0971411	8.20342	0.678486	935373	7.89858e+07	7.89913e+07	-89.3215	0.0000000E+000	0.0000000E+000	0.0000000E+000	89.3215	0.0000000E+000	0.0000000E+000	0.0000000E+000	-89.3215	0.0000000E+000	0.0000000E+000	0.0000000E+000	-0.678486	0.0000000E+000	0.0000000E+000	0.0000000E+000	0.678486	84.4426	89.3215	-0.000833713
0.645874	0.125031	0.00534496	0.125145	-2.44785	249991	-0.00041648	-2.59877	4.61028e+07	84098.2	2	37	0.00511599	0.0408803	0	-1.6399	14	0.0993814	0.0727273	1.06894	9.66117e-07	3.24384e-06	1.10623e-06	2.26279e-06	1.69715e-06	1.77271e-06	0.138409	0.237228	0.199319	3.11272e-05	3.0131e-05	1.66239e-05	2.93827e-05	6.46676e-06	7.38537e-06	7.98341	0.341283	7.9907	2.44785	8.40981e+07	1.96725e+09	1.96905e+09	-87.5522	0.0000000E+000	0.0000000E+000	0.0000000E+000	87.5522	0.0000000E+000	0.0000000E+000	0.0000000E+000	-87.5522	0.0000000E+000	0.0000000E+000	0.0000000E+000	-2.44785	0.0000000E+000	0.0000000E+000	0.0000000E+000	2.44785	23.3924	87.5522	-0.0114794
0.0252177	0.155094	0.00844655	0.155324	-3.1173	251121	-0.000397325	-2.48711	7.47198e+08	2.20963e+06	2	37	0.00510521	0.0328682	0	-2.43605	14	0.122052	0.159722	0.257386	2.76045e-06	4.58485e-06	9.72535e-07	2.20899e-06	1.41168e-06	8.57249e-07	0.14276	0.11087	0.519361	1.67198e-05	3.08604e-05	6.01537e-06	2.72769e-05	9.00875e-06	6.37996e-06	6.42864	0.35011	6.43817	3.1173	2.20963e+09	4.05727e+10	4.06329e+10	-86.8827	0.0000000E+000	0.0000000E+000	0.0000000E+000	86.8827	0.0000000E+000	0.0000000E+000	0.0000000E+000	-86.8827	0.0000000E+000	0.0000000E+000	0.0000000E+000	-3.1173	0.0000000E+000	0.0000000E+000	0.0000000E+000	3.1173	18.3618	86.8827	-0.133971
13658	0.106264	0.00617589	0.106443	-3.3262	251441	-0.00029622	-1.72763	1886.84	6.35185	3	37	0.00516735	0.0485457	0	-2.61176	14	0.291139	0.144558	5.68565	3.80898e-06	6.591e-06	5.60218e-06	5.43888e-06	5.74654e-06	6.05754e-06	0.0955138	0.00980524	0.396232	5.77345e-06	4.50619e-05	3.32739e-06	4.71028e-06	4.71422e-06	4.3575e-06	9.37888	0.545087	9.3947	3.3262	6351.84	109291	109476	-86.6738	0.0000000E+000	0.0000000E+000	0.0000000E+000	86.6738	0.0000000E+000	0.0000000E+000	0.0000000E+000	-86.6738	0.0000000E+000	0.0000000E+000	0.0000000E+000	-3.3262	0.0000000E+000	0.0000000E+000	0.0000000E+000	3.3262	17.2062	86.6738	-0.0004604
533.464	0.118861	0.00331551	0.118907	-1.5978	251459	-0.000393804	-2.51042	89984	69.9603	3	37	0.00509163	0.0428203	0	-2.62393	14	0.225547	0.170131	5.81289	4.64389e-06	6.83268e-06	2.44767e-06	3.86406e-06	3.24699e-06	4.75365e-06	0.0543469	0.0130123	0.456151	3.97103e-06	1.89233e-05	2.76715e-06	1.08006e-05	5.20658e-06	2.36256e-06	8.40668	0.234497	8.40995	1.5978	69960.4	2.50807e+06	2.50905e+06	-88.4022	0.0000000E+000	0.0000000E+000	0.0000000E+000	88.4022	0.0000000E+000	0.0000000E+000	0.0000000E+000	-88.4022	0.0000000E+000	0.0000000E+000	0.0000000E+000	-1.5978	0.0000000E+000	0.0000000E+000	0.0000000E+000	1.5978	35.8499	88.4022	-0.000942428
20.8333	0.121759	0.00138564	0.121767	-0.652012	251475	-0.000413377	-2.52027	5.51328e+06	713.933	3	37	0.00511402	0.0419986	0	-2.63552	14	0.257241	0.159817	5.81868	5.79723e-06	4.90855e-06	3.47497e-06	5.23952e-06	5.36984e-06	5.78446e-06	0.114035	0.0782056	0.457071	6.31796e-06	3.37496e-05	7.80205e-06	3.00019e-05	7.1969e-06	8.00354e-06	8.2119	0.0934536	8.21244	0.652012	713937	6.27344e+07	6.27384e+07	-89.348	0.0000000E+000	0.0000000E+000	0.0000000E+000	89.348	0.0000000E+000	0.0000000E+000	0.0000000E+000	-89.348	0.0000000E+000	0.0000000E+000	0.0000000E+000	-0.652012	0.0000000E+000	0.0000000E+000	0.0000000E+000	0.652012	87.8715	89.348	-0.000863719
0.813551	0.124728	0.00446529	0.124808	-2.05032	251516	-0.000407094	-2.51483	4.38113e+07	56078.9	3	37	0.00511891	0.0410142	0	-2.66357	14	0.124321	0.062068	1.19834	1.81215e-06	4.80722e-06	2.38823e-06	1.4373e-06	1.14242e-06	1.29711e-06	0.12644	0.144681	0.190917	2.46341e-05	3.28978e-05	8.29052e-06	2.8988e-05	5.41924e-06	5.28971e-06	8.00717	0.286658	8.0123	2.05032	5.60789e+07	1.56644e+09	1.56745e+09	-87.9497	0.0000000E+000	0.0000000E+000	0.0000000E+000	87.9497	0.0000000E+000	0.0000000E+000	0.0000000E+000	-87.9497	0.0000000E+000	0.0000000E+000	0.0000000E+000	-2.05032	0.0000000E+000	0.0000000E+000	0.0000000E+000	2.05032	27.9328	87.9497	-0.00379588
0.0317924	0.154043	0.0100477	0.15437	-3.73192	252414	-0.000419983	-2.62852	4.9823e+08	2.11074e+06	3	37	0.00510446	0.0330664	0	-3.31819	14	0.103886	0.108114	0.281848	1.7533e-06	3.63073e-06	1.48018e-06	2.17277e-06	1.46598e-06	6.14437e-07	0.147035	0.122714	0.504817	1.40865e-05	2.59685e-05	6.46816e-06	3.6019e-05	4.78702e-06	5.14317e-06	6.4642	0.421637	6.47793	3.73192	2.11074e+09	3.23602e+10	3.24289e+10	-86.2681	0.0000000E+000	0.0000000E+000	0.0000000E+000	86.2681	0.0000000E+000	0.0000000E+000	0.0000000E+000	-86.2681	0.0000000E+000	0.0000000E+000	0.0000000E+000	-3.73192	0.0000000E+000	0.0000000E+000	0.0000000E+000	3.73192	15.3312	86.2681	-0.125689
0.0199946	0.156151	0.00701224	0.156308	-2.57124	252962	-0.000421219	-2.62587	1.13514e+09	2.28454e+06	3	37	0.00510481	0.0326586	0	-3.62811	14	0.136454	0.177392	0.255288	3.4486e-06	3.42415e-06	1.34438e-06	3.14598e-06	2.2414e-06	8.75023e-07	0.152518	0.18231	0.515697	2.17742e-05	2.68514e-05	9.79607e-06	3.15879e-05	6.34416e-06	6.06842e-06	6.39116	0.287006	6.39761	2.57124	2.28454e+09	5.0873e+10	5.09243e+10	-87.4288	0.0000000E+000	0.0000000E+000	0.0000000E+000	87.4288	0.0000000E+000	0.0000000E+000	0.0000000E+000	-87.4288	0.0000000E+000	0.0000000E+000	0.0000000E+000	-2.57124	0.0000000E+000	0.0000000E+000	0.0000000E+000	2.57124	22.2684	87.4288	-0.174388