File: Python/Experiments/IRFB/240503-Felt-1p5M_FeCl2FeCl3-1M_HCl/Data/240503-EIS-Felt-1p5M_FeCl2FeCl3-1M_HCl-10mLmin-20mHz_10ppd-Warmup_C15.mpt
EC-Lab ASCII FILE
Nb header lines : 66

Potentio Electrochemical Impedance Spectroscopy

Run on channel : 15 (SN 19485)
User :
Electrode connection : standard
Potential control : Ewe
Ewe ctrl range : min = -1.00 V, max = 1.00 V
Ewe,I filtering : <None>
Safety Limits :
	Do not start on E overload
Channel : Floating
Acquisition started on : 05/03/2024 11:49:26.278
Loaded Setting File :  C:\Data\mathias\IRFB\240418-EIS-Cloth2-0p5M_FeCl2FeCl3-1M_HCl-20mLmin-25mHz_10ppd-Warmup_C15.mpr
Saved on :
	File : 240503-EIS-Felt-1p5M_FeCl2FeCl3-1M_HCl-10mLmin-20mHz_10ppd-Warmup_C15.mpr
	Directory : C:\Data\mathias\IRFB\
	Host : 192.168.0.1
Device : VMP-300 (SN 0826)
Address : USB
EC-Lab for windows v11.52 (software)
Internet server v11.52 (firmware)
Command interpretor v11.52 (firmware)
Electrode material :
Initial state :
Electrolyte :
Comments :
Cable : special
Electrode surface area : 0.001 cm²
Characteristic mass : 0.001 g
Equivalent Weight : 0.000 g/eq.
Density : 0.000 g/cm3
Volume (V) : 0.001 cm³
Record EIS quality indicators
Cycle Definition : Charge/Discharge alternance
Mode                Single sine
E (V)               0.0000
vs.                 Eoc
tE (h:m:s)          0:00:0.0000
record              0
dI                  0.000
unit dI             mA
dt (s)              0.000
fi                  220.000
unit fi             kHz
ff                  20.000
unit ff             mHz
Nd                  10
Points              per decade
spacing             Logarithmic
Va (mV)             5.0
pw                  0.10
Na                  3
corr                1
E range min (V)     -1.000
E range max (V)     1.000
I Range             Auto
Bandwidth           8
nc cycles           2
goto Ns'            0
nr cycles           999
inc. cycle          1

freq/Hz	Re(Z)/Ohm	-Im(Z)/Ohm	|Z|/Ohm	Phase(Z)/deg	time/s	<Ewe>/V	<I>/mA	Cs/µF	Cp/µF	cycle number	I Range	|Ewe|/V	|I|/A	Ns	(Q-Qo)/mA.h	THD Ewe/%	NSD Ewe/%	NSR Ewe/%	|Ewe h2|/V	|Ewe h3|/V	|Ewe h4|/V	|Ewe h5|/V	|Ewe h6|/V	|Ewe h7|/V	THD I/%	NSD I/%	NSR I/%	|I h2|/A	|I h3|/A	|I h4|/A	|I h5|/A	|I h6|/A	|I h7|/A	Re(Y)/Ohm-1	Im(Y)/Ohm-1	|Y|/Ohm-1	Phase(Y)/deg	Re(C)/nF	Im(C)/nF	|C|/nF	Phase(C)/deg	Re(M)	Im(M)	|M|	Phase(M)/deg	Re(Permittivity)	Im(Permittivity)	|Permittivity|	Phase(Permittivity)/deg	Re(Resistivity)/Ohm.cm	Im(Resistivity)/Ohm.cm	|Resistivity|/Ohm.cm	Phase(Resistivity)/deg	Re(Conductivity)/mS/cm	Im(Conductivity)/mS/cm	|Conductivity|/mS/cm	Phase(Conductivity)/deg	Tan(Delta)	Loss Angle(Delta)/deg	dq/mA.h
220003	0.0869741	-0.0165405	0.088533	10.7678	1.86248	-0.000411326	-2.85661	-43.7365	-1.52662	1	37	0.00312453	0.0352923	0	-0.00145411	-1	-1	-1	0	0	0	0	0	0	-1	-1	-1	0	0	0	0	0	0	11.0963	-2.11027	11.2952	-10.7678	-1526.62	8027.35	8171.23	-100.768	0.0000000E+000	0.0000000E+000	0.0000000E+000	100.768	0.0000000E+000	0.0000000E+000	0.0000000E+000	-100.768	0.0000000E+000	0.0000000E+000	0.0000000E+000	10.7678	0.0000000E+000	0.0000000E+000	0.0000000E+000	-10.7678	5.25826	79.2322	-0.00145411
3403.27	0.103477	0.00286333	0.103516	-1.58504	23.4456	-0.00054237	-3.33427	16332.5	12.4962	1	37	0.0051701	0.0499447	0	-0.0179206	0.461699	0.186878	6.75691	8.39766e-06	8.634e-06	9.64152e-06	1.01201e-05	8.84543e-06	9.95442e-06	0.0920449	0.0472702	0.507091	9.98703e-06	4.07951e-05	4.42034e-06	8.50951e-06	8.21606e-06	4.46431e-06	9.6566	0.26721	9.6603	1.58504	12496.1	451594	451767	-88.415	0.0000000E+000	0.0000000E+000	0.0000000E+000	88.415	0.0000000E+000	0.0000000E+000	0.0000000E+000	-88.415	0.0000000E+000	0.0000000E+000	0.0000000E+000	-1.58504	0.0000000E+000	0.0000000E+000	0.0000000E+000	1.58504	36.1386	88.415	-0.00115812
52.6255	0.107711	0.00121949	0.107717	-0.648672	46.1438	-0.000508481	-3.38281	2.47996e+06	317.856	1	37	0.00511649	0.0474992	0	-0.0386005	0.456138	0.159601	6.98345	1.21286e-05	8.92537e-06	3.99111e-06	1.22681e-05	6.10883e-06	7.44551e-06	0.103562	0.130781	0.500431	8.92918e-06	6.48952e-05	7.9527e-06	3.19941e-05	7.45084e-06	8.62584e-06	9.28295	0.105101	9.28355	0.648672	317857	2.80744e+07	2.80762e+07	-89.3513	0.0000000E+000	0.0000000E+000	0.0000000E+000	89.3513	0.0000000E+000	0.0000000E+000	0.0000000E+000	-89.3513	0.0000000E+000	0.0000000E+000	0.0000000E+000	-0.648672	0.0000000E+000	0.0000000E+000	0.0000000E+000	0.648672	88.324	89.3513	-0.0010208
0.813551	0.111897	0.00566067	0.11204	-2.89603	91.7537	-0.000515056	-3.62286	3.45595e+07	88218.1	1	37	0.00512678	0.0457585	0	-0.0788149	0.130367	0.0686961	1.24672	2.15787e-06	4.14002e-06	2.02708e-06	2.47904e-06	1.54446e-06	2.42485e-06	0.316261	0.0732148	0.367566	0.000123291	5.09337e-05	1.93667e-05	3.88825e-05	9.60689e-06	5.82857e-06	8.91399	0.450944	8.92539	2.89603	8.8218e+07	1.74384e+09	1.74607e+09	-87.104	0.0000000E+000	0.0000000E+000	0.0000000E+000	87.104	0.0000000E+000	0.0000000E+000	0.0000000E+000	-87.104	0.0000000E+000	0.0000000E+000	0.0000000E+000	-2.89603	0.0000000E+000	0.0000000E+000	0.0000000E+000	2.89603	19.7674	87.104	-0.00341647
174510	0.0877755	-0.0143555	0.0889417	9.28836	1539.8	-0.000415594	-4.57032	-63.5304	-1.65503	2	37	0.0044507	0.0500407	0	-1.43271	-1	-1	-1	0	0	0	0	0	0	-1	-1	-1	0	0	0	0	0	0	11.0959	-1.81471	11.2433	-9.28836	-1655.03	10119.6	10254	-99.2884	0.0000000E+000	0.0000000E+000	0.0000000E+000	99.2884	0.0000000E+000	0.0000000E+000	0.0000000E+000	-99.2884	0.0000000E+000	0.0000000E+000	0.0000000E+000	9.28836	0.0000000E+000	0.0000000E+000	0.0000000E+000	-9.28836	6.11443	80.7116	-0.00169277
2699.14	0.102179	0.00284389	0.102218	-1.59428	1561.7	-0.000563546	-3.7153	20734	16.0492	2	37	0.00517827	0.0506591	0	-1.45189	0.375997	0.115035	5.88506	5.92492e-06	6.61708e-06	5.06141e-06	1.10695e-05	2.04711e-06	7.91204e-06	0.0805642	0.0164593	0.406874	7.08616e-06	3.6445e-05	3.30944e-06	8.27142e-06	6.24176e-06	3.24549e-06	9.77922	0.272181	9.783	1.59428	16049.2	576633	576856	-88.4057	0.0000000E+000	0.0000000E+000	0.0000000E+000	88.4057	0.0000000E+000	0.0000000E+000	0.0000000E+000	-88.4057	0.0000000E+000	0.0000000E+000	0.0000000E+000	-1.59428	0.0000000E+000	0.0000000E+000	0.0000000E+000	1.59428	35.9291	88.4057	-0.00141453
41.7501	0.106124	0.00142362	0.106133	-0.768559	1583.92	-0.000502572	-3.41154	2.67774e+06	481.783	2	37	0.00542848	0.0511477	0	-1.47334	0.325985	0.191537	5.64368	5.74739e-06	8.02234e-06	8.04256e-06	3.59659e-06	8.22567e-06	6.04831e-06	0.103771	0.0323647	0.397791	8.21328e-06	3.78924e-05	8.77644e-06	3.64846e-05	8.21872e-06	4.50738e-06	9.42125	0.126383	9.4221	0.768559	481785	3.59146e+07	3.59178e+07	-89.2314	0.0000000E+000	0.0000000E+000	0.0000000E+000	89.2314	0.0000000E+000	0.0000000E+000	0.0000000E+000	-89.2314	0.0000000E+000	0.0000000E+000	0.0000000E+000	-0.768559	0.0000000E+000	0.0000000E+000	0.0000000E+000	0.768559	74.5452	89.2314	-0.00110137
0.645874	0.110977	0.00659928	0.111173	-3.40309	1638.22	-0.000501575	-3.52401	3.73401e+07	131573	2	37	0.00543712	0.0489067	0	-1.52758	0.144229	0.0545731	1.00877	1.67664e-06	6.02308e-06	9.21017e-07	3.81236e-06	1.74533e-06	1.47757e-06	0.254543	0.351022	0.276668	7.40969e-05	7.55022e-05	3.60406e-05	3.10208e-05	1.37626e-05	1.1251e-05	8.9791	0.533944	8.99496	3.40309	1.31573e+08	2.21261e+09	2.21652e+09	-86.5969	0.0000000E+000	0.0000000E+000	0.0000000E+000	86.5969	0.0000000E+000	0.0000000E+000	0.0000000E+000	-86.5969	0.0000000E+000	0.0000000E+000	0.0000000E+000	-3.40309	0.0000000E+000	0.0000000E+000	0.0000000E+000	3.40309	16.8166	86.5969	-0.0102906
138435	0.0891909	-0.0103631	0.0897909	6.62746	3077.66	-0.000396096	-2.06449	-110.939	-1.47773	3	37	0.00513446	0.0571824	0	-2.81509	-1	-1	-1	0	0	0	0	0	0	-1	-1	-1	0	0	0	0	0	0	11.0626	-1.28535	11.137	-6.62746	-1477.73	12718.3	12803.9	-96.6275	0.0000000E+000	0.0000000E+000	0.0000000E+000	96.6275	0.0000000E+000	0.0000000E+000	0.0000000E+000	-96.6275	0.0000000E+000	0.0000000E+000	0.0000000E+000	6.62746	0.0000000E+000	0.0000000E+000	0.0000000E+000	-6.62746	8.60662	83.3725	-0.000641991
2140.69	0.102227	0.00267122	0.102262	-1.49681	3099.73	-0.000535286	-3.32543	27832.8	18.991	3	37	0.00516808	0.0505375	0	-2.83247	0.402362	0.14589	5.80612	4.94596e-06	7.41019e-06	1.16487e-05	6.61119e-06	9.42748e-06	4.49792e-06	0.0670021	0.0266208	0.388128	4.86141e-06	2.74068e-05	4.33629e-06	7.1215e-06	8.23439e-06	4.21561e-06	9.77545	0.255435	9.77879	1.49681	18991	726782	727030	-88.5032	0.0000000E+000	0.0000000E+000	0.0000000E+000	88.5032	0.0000000E+000	0.0000000E+000	0.0000000E+000	-88.5032	0.0000000E+000	0.0000000E+000	0.0000000E+000	-1.49681	0.0000000E+000	0.0000000E+000	0.0000000E+000	1.49681	38.2699	88.5032	-0.00125416
33.1038	0.106194	0.00132833	0.106203	-0.716648	3121.98	-0.00049506	-3.32403	3.61938e+06	566.212	3	37	0.00512806	0.0482857	0	-2.85361	0.352228	0.139725	6.04575	7.64651e-06	7.93647e-06	6.79255e-06	3.79617e-06	7.58524e-06	6.03271e-06	0.115977	0.0288673	0.417525	1.05227e-05	3.58428e-05	6.63849e-06	3.58508e-05	9.72162e-06	5.64971e-06	9.41523	0.117771	9.41597	0.716648	566215	4.52661e+07	4.52696e+07	-89.2833	0.0000000E+000	0.0000000E+000	0.0000000E+000	89.2833	0.0000000E+000	0.0000000E+000	0.0000000E+000	-89.2833	0.0000000E+000	0.0000000E+000	0.0000000E+000	-0.716648	0.0000000E+000	0.0000000E+000	0.0000000E+000	0.716648	79.9455	89.2833	-0.00110509
0.511825	0.111033	0.00763007	0.111294	-3.93114	3187.38	-0.000503693	-3.31178	4.0754e+07	191549	3	37	0.00512577	0.0460559	0	-2.91185	0.109628	0.0676556	0.961517	7.72642e-07	4.22472e-06	2.07429e-06	1.30726e-06	2.01324e-06	5.05856e-07	0.256871	0.586861	0.252587	0.000102145	4.16464e-05	2.58173e-05	3.79514e-05	2.25708e-05	1.34129e-05	8.96403	0.616001	8.98518	3.93114	1.91549e+08	2.78742e+09	2.79399e+09	-86.0689	0.0000000E+000	0.0000000E+000	0.0000000E+000	86.0689	0.0000000E+000	0.0000000E+000	0.0000000E+000	-86.0689	0.0000000E+000	0.0000000E+000	0.0000000E+000	-3.93114	0.0000000E+000	0.0000000E+000	0.0000000E+000	3.93114	14.552	86.0689	-0.00556515
109811	0.0902877	-0.00738124	0.0905889	4.67368	4616.06	-0.00041621	-2.47917	-196.356	-1.30363	4	37	0.00523344	0.0577713	0	-0.00272459	-1	-1	-1	0	0	0	0	0	0	-1	-1	-1	0	0	0	0	0	0	11.0022	-0.899455	11.0389	-4.67368	-1303.63	15946	15999.2	-94.6737	0.0000000E+000	0.0000000E+000	0.0000000E+000	94.6737	0.0000000E+000	0.0000000E+000	0.0000000E+000	-94.6737	0.0000000E+000	0.0000000E+000	0.0000000E+000	4.67368	0.0000000E+000	0.0000000E+000	0.0000000E+000	-4.67368	12.232	85.3263	-0.000901906
1698.37	0.102655	0.00253083	0.102686	-1.41226	4638.31	-0.00053441	-3.34962	37027.7	22.4918	4	37	0.00512637	0.0499226	0	-0.020552	0.338515	0.162779	5.97052	5.19914e-06	7.11316e-06	9.17134e-06	6.79221e-06	5.37641e-06	5.3023e-06	0.0551387	0.0657511	0.398377	9.25255e-06	1.85861e-05	4.07703e-06	6.79896e-06	2.59472e-06	3.97076e-06	9.73542	0.240014	9.73838	1.41226	22491.8	912312	912589	-88.5877	0.0000000E+000	0.0000000E+000	0.0000000E+000	88.5877	0.0000000E+000	0.0000000E+000	0.0000000E+000	-88.5877	0.0000000E+000	0.0000000E+000	0.0000000E+000	-1.41226	0.0000000E+000	0.0000000E+000	0.0000000E+000	1.41226	40.562	88.5877	-0.00118803
26.2693	0.10614	0.00146597	0.10615	-0.791302	4660.31	-0.000514949	-3.48442	4.13282e+06	788.24	4	37	0.0051235	0.0482667	0	-0.0410354	0.714993	0.189087	5.81347	4.68547e-06	1.21614e-05	4.76483e-06	7.963e-06	5.91228e-06	3.12559e-05	0.106181	0.040834	0.403838	1.09804e-05	3.61244e-05	9.47787e-06	3.91565e-05	6.92371e-06	1.03421e-05	9.41976	0.130103	9.42066	0.791302	788243	5.70704e+07	5.70758e+07	-89.2087	0.0000000E+000	0.0000000E+000	0.0000000E+000	89.2087	0.0000000E+000	0.0000000E+000	0.0000000E+000	-89.2087	0.0000000E+000	0.0000000E+000	0.0000000E+000	-0.791302	0.0000000E+000	0.0000000E+000	0.0000000E+000	0.791302	72.4023	89.2087	-0.000981282
0.406108	0.111776	0.00851882	0.1121	-4.35827	4739.98	-0.000487459	-3.28301	4.60044e+07	265671	4	37	0.00512246	0.0456953	0	-0.117995	0.118355	0.0664526	0.865163	1.85919e-06	4.64852e-06	1.1527e-06	2.48266e-06	1.50092e-06	1.01972e-06	0.23458	0.0728754	0.162328	3.87421e-05	9.69567e-05	9.84256e-06	3.20494e-05	1.19107e-05	1.24514e-05	8.89479	0.677901	8.92059	4.35827	2.65671e+08	3.4859e+09	3.496e+09	-85.6417	0.0000000E+000	0.0000000E+000	0.0000000E+000	85.6417	0.0000000E+000	0.0000000E+000	0.0000000E+000	-85.6417	0.0000000E+000	0.0000000E+000	0.0000000E+000	-4.35827	0.0000000E+000	0.0000000E+000	0.0000000E+000	4.35827	13.1211	85.6417	-0.0202753
0.04008	0.14262	0.0165963	0.143582	-6.63752	5407.62	-0.00049286	-3.28131	2.39266e+08	3.19672e+06	4	37	0.00510985	0.0355883	0	-0.685044	0.1179	0.0851886	0.308372	2.79295e-06	3.53947e-06	1.61613e-06	2.83821e-06	1.16452e-06	1.06809e-06	0.151073	0.0836444	1.00418	1.65603e-05	3.22031e-05	1.81915e-05	3.57712e-05	1.54372e-05	1.34946e-05	6.91797	0.805028	6.96465	6.63752	3.19672e+09	2.74708e+10	2.76562e+10	-83.3625	0.0000000E+000	0.0000000E+000	0.0000000E+000	83.3625	0.0000000E+000	0.0000000E+000	0.0000000E+000	-83.3625	0.0000000E+000	0.0000000E+000	0.0000000E+000	-6.63752	0.0000000E+000	0.0000000E+000	0.0000000E+000	6.63752	8.59345	83.3625	-0.115132