File: Python/Experiments/IRFB/240503-Felt-1p5M_FeCl2FeCl3-1M_HCl/Data/240503-EIS-Felt-1p5M_FeCl2FeCl3-1M_HCl-Wamup_10mLmin-4xFlowRate-20mHz_10ppd_07_PEIS_C15.mpt
EC-Lab ASCII FILE
Nb header lines : 75

Potentio Electrochemical Impedance Spectroscopy

Run on channel : 15 (SN 19485)
User :
Electrode connection : standard
Potential control : Ewe
Ewe ctrl range : min = -1.00 V, max = 1.00 V
Ewe,I filtering : 50 kHz
Safety Limits :
	Do not start on E overload
Channel : Grounded
Acquisition started on : 05/03/2024 14:39:22.131
Loaded Setting File :  NONE
Saved on :
	File : 240503-EIS-Felt-1p5M_FeCl2FeCl3-1M_HCl-Wamup_10mLmin-4xFlowRate-20mHz_10ppd_07_PEIS_C15.mpr
	Directory : C:\Data\mathias\IRFB\
	Host : 192.168.0.1
Device : VMP-300 (SN 0826)
Address : USB
EC-Lab for windows v11.52 (software)
Internet server v11.52 (firmware)
Command interpretor v11.52 (firmware)
Electrode material :
Initial state :
Electrolyte :
Comments :
Cable : special
Electrode surface area : 0.001 cm²
Characteristic mass : 0.001 g
Equivalent Weight : 0.000 g/eq.
Density : 0.000 g/cm3
Volume (V) : 0.001 cm³
Record EIS quality indicators
Cycle Definition : Charge/Discharge alternance
External device configuration :
   device type : Other
   device name : Other
   Analog OUT :
      mode : E/V
      unit : KNF Pump/ml/min
      max : 120.000 at 5.000 V
      min : 0.000 at 0.000 V
      current : 14.000
Mode                Single sine
E (V)               0.0000
vs.                 Eoc
tE (h:m:s)          0:00:0.0000
record              0
dI                  0.000
unit dI             mA
dt (s)              0.000
fi                  220.000
unit fi             kHz
ff                  20.000
unit ff             mHz
Nd                  10
Points              per decade
spacing             Logarithmic
Va (mV)             5.0
pw                  0.10
Na                  3
corr                0
E range min (V)     -1.000
E range max (V)     1.000
I Range             Auto
Bandwidth           8
nc cycles           2
goto Ns'            0
nr cycles           0
inc. cycle          0

freq/Hz	Re(Z)/Ohm	-Im(Z)/Ohm	|Z|/Ohm	Phase(Z)/deg	time/s	<Ewe>/V	<I>/mA	Cs/µF	Cp/µF	cycle number	I Range	|Ewe|/V	|I|/A	Ns	(Q-Qo)/mA.h	Analog OUT/V	THD Ewe/%	NSD Ewe/%	NSR Ewe/%	|Ewe h2|/V	|Ewe h3|/V	|Ewe h4|/V	|Ewe h5|/V	|Ewe h6|/V	|Ewe h7|/V	THD I/%	NSD I/%	NSR I/%	|I h2|/A	|I h3|/A	|I h4|/A	|I h5|/A	|I h6|/A	|I h7|/A	Re(Y)/Ohm-1	Im(Y)/Ohm-1	|Y|/Ohm-1	Phase(Y)/deg	Re(C)/nF	Im(C)/nF	|C|/nF	Phase(C)/deg	Re(M)	Im(M)	|M|	Phase(M)/deg	Re(Permittivity)	Im(Permittivity)	|Permittivity|	Phase(Permittivity)/deg	Re(Resistivity)/Ohm.cm	Im(Resistivity)/Ohm.cm	|Resistivity|/Ohm.cm	Phase(Resistivity)/deg	Re(Conductivity)/mS/cm	Im(Conductivity)/mS/cm	|Conductivity|/mS/cm	Phase(Conductivity)/deg	Tan(Delta)	Loss Angle(Delta)/deg	dq/mA.h
220003	0.0911698	-0.0196603	0.0932656	12.1692	258770	-0.000322783	-2.29181	-36.7961	-1.63509	1	37	0.00329479	0.035327	0	-0.00101722	49	-1	-1	-1	0	0	0	0	0	0	-1	-1	-1	0	0	0	0	0	0	10.4811	-2.26021	10.7221	-12.1692	-1635.09	7582.29	7756.59	-102.169	0.0000000E+000	0.0000000E+000	0.0000000E+000	102.169	0.0000000E+000	0.0000000E+000	0.0000000E+000	-102.169	0.0000000E+000	0.0000000E+000	0.0000000E+000	12.1692	0.0000000E+000	0.0000000E+000	0.0000000E+000	-12.1692	4.63725	77.8308	-0.00101722
8590.41	0.108643	0.00657048	0.108841	-3.46091	258786	-0.000435708	-3.16133	2819.74	10.2758	1	37	0.00525856	0.048314	0	-0.0113196	49	0.374218	0.206523	5.73804	7.34411e-06	7.51182e-06	5.45786e-06	5.0521e-06	4.49427e-06	1.18427e-05	0.114671	0.0530188	0.404712	2.83575e-06	5.34004e-05	5.31261e-06	1.10576e-05	4.3274e-06	3.18768e-06	9.17093	0.554638	9.18769	3.46091	10275.8	169910	170221	-86.5391	0.0000000E+000	0.0000000E+000	0.0000000E+000	86.5391	0.0000000E+000	0.0000000E+000	0.0000000E+000	-86.5391	0.0000000E+000	0.0000000E+000	0.0000000E+000	-3.46091	0.0000000E+000	0.0000000E+000	0.0000000E+000	3.46091	16.535	86.5391	-0.00106588
335.537	0.119353	0.0027335	0.119384	-1.312	258804	-0.000377214	-3.09364	173524	90.9714	1	37	0.00506909	0.0424603	0	-0.0272528	49	0.324344	0.208427	5.91624	9.00293e-06	4.10727e-06	7.15878e-06	3.16075e-06	5.96622e-06	7.33228e-06	0.0586045	0.021215	0.46237	5.08452e-06	2.01975e-05	4.11398e-06	1.09474e-05	3.35793e-06	4.09119e-06	8.37412	0.19179	8.37631	1.312	90971.4	3.97209e+06	3.97313e+06	-88.688	0.0000000E+000	0.0000000E+000	0.0000000E+000	88.688	0.0000000E+000	0.0000000E+000	0.0000000E+000	-88.688	0.0000000E+000	0.0000000E+000	0.0000000E+000	-1.312	0.0000000E+000	0.0000000E+000	0.0000000E+000	1.312	43.663	88.688	-0.00113602
13.1083	0.121687	0.00118606	0.121692	-0.558433	258820	-0.000415362	-3.1701	1.02369e+07	972.418	1	37	0.00511496	0.0420318	0	-0.0405798	49	0.255098	0.133608	4.01979	4.04205e-06	4.665e-06	3.81957e-06	6.11637e-06	7.62799e-06	2.56481e-06	0.113105	0.0744127	0.345782	7.31903e-06	3.14421e-05	6.16312e-06	3.21774e-05	8.03376e-06	4.14285e-06	8.21704	0.0800899	8.21743	0.558433	972419	9.97679e+07	9.97726e+07	-89.4416	0.0000000E+000	0.0000000E+000	0.0000000E+000	89.4416	0.0000000E+000	0.0000000E+000	0.0000000E+000	-89.4416	0.0000000E+000	0.0000000E+000	0.0000000E+000	-0.558433	0.0000000E+000	0.0000000E+000	0.0000000E+000	0.558433	102.598	89.4416	-0.00124273
0.511825	0.125861	0.00531892	0.125973	-2.41989	258881	-0.000407583	-3.1072	5.84622e+07	104223	1	37	0.00511611	0.0406126	0	-0.0928578	49	0.111297	0.0695063	0.937427	2.12981e-06	3.95673e-06	5.39325e-07	2.69356e-06	1.70455e-06	1.01262e-06	0.122276	0.0702981	0.176245	1.04197e-05	3.35836e-05	4.32804e-06	3.08252e-05	7.01214e-06	1.17191e-05	7.93111	0.335171	7.93819	2.41989	1.04223e+08	2.46622e+09	2.46842e+09	-87.5801	0.0000000E+000	0.0000000E+000	0.0000000E+000	87.5801	0.0000000E+000	0.0000000E+000	0.0000000E+000	-87.5801	0.0000000E+000	0.0000000E+000	0.0000000E+000	-2.41989	0.0000000E+000	0.0000000E+000	0.0000000E+000	2.41989	23.6629	87.5801	-0.0143336
0.0199946	0.133231	0.000736756	0.133233	-0.316838	260304	-0.000423788	-2.98357	1.0804e+10	330376	1	37	0.00511533	0.0383939	0	-1.35777	49	0.109318	0.0886754	0.25472	1.92349e-06	3.4482e-06	1.27889e-06	2.94117e-06	1.54435e-06	1.13216e-06	0.122725	0.0807292	0.18743	1.543e-05	2.70388e-05	8.50114e-06	3.05175e-05	6.61684e-06	9.34875e-06	7.50554	0.0415051	7.50566	0.316838	3.30379e+08	5.97433e+10	5.97442e+10	-89.6832	0.0000000E+000	0.0000000E+000	0.0000000E+000	89.6832	0.0000000E+000	0.0000000E+000	0.0000000E+000	-89.6832	0.0000000E+000	0.0000000E+000	0.0000000E+000	-0.316838	0.0000000E+000	0.0000000E+000	0.0000000E+000	0.316838	180.834	89.6832	-0.29758
10837.3	0.106864	0.00637049	0.107053	-3.41155	260320	-0.000312941	-1.99331	2305.29	8.16341	2	37	0.00515664	0.0481688	0	-1.367	49	0.291513	0.226492	5.75807	3.21844e-06	4.49677e-06	6.38051e-06	5.68304e-06	4.66095e-06	6.61165e-06	0.0776623	0.0365398	0.403305	7.16446e-06	3.52379e-05	4.0686e-06	5.52304e-06	4.01191e-06	5.10702e-06	9.32458	0.555869	9.34113	3.41155	8163.41	136939	137183	-86.5884	0.0000000E+000	0.0000000E+000	0.0000000E+000	86.5884	0.0000000E+000	0.0000000E+000	0.0000000E+000	-86.5884	0.0000000E+000	0.0000000E+000	0.0000000E+000	-3.41155	0.0000000E+000	0.0000000E+000	0.0000000E+000	3.41155	16.7748	86.5884	-0.000662007
423.239	0.118541	0.00296809	0.118578	-1.4343	260338	-0.000418335	-2.95261	126694	79.3779	2	37	0.00546908	0.046122	0	-1.38134	49	0.292964	0.182544	5.51095	8.92815e-06	5.05631e-06	6.0293e-06	4.13936e-06	5.30918e-06	6.82863e-06	0.0613458	0.0221037	0.42361	9.24555e-06	2.17669e-05	2.21167e-06	1.29633e-05	5.02546e-06	5.41854e-06	8.4306	0.211089	8.43324	1.4343	79377.9	3.17024e+06	3.17124e+06	-88.5657	0.0000000E+000	0.0000000E+000	0.0000000E+000	88.5657	0.0000000E+000	0.0000000E+000	0.0000000E+000	-88.5657	0.0000000E+000	0.0000000E+000	0.0000000E+000	-1.4343	0.0000000E+000	0.0000000E+000	0.0000000E+000	1.4343	39.9386	88.5657	-0.000923692
16.5286	0.121154	0.00124833	0.121161	-0.590332	260354	-0.000426985	-3.01356	7.71358e+06	818.821	2	37	0.00511417	0.0422098	0	-1.39503	49	0.30067	0.210956	5.80161	8.52486e-06	7.17252e-06	5.02623e-06	3.9043e-06	5.13937e-06	3.19387e-06	0.112629	0.0470525	0.45524	7.98621e-06	3.48239e-05	3.55658e-06	2.76958e-05	8.62464e-06	8.17939e-06	8.25306	0.0850363	8.2535	0.590332	818820	7.94693e+07	7.94735e+07	-89.4097	0.0000000E+000	0.0000000E+000	0.0000000E+000	89.4097	0.0000000E+000	0.0000000E+000	0.0000000E+000	-89.4097	0.0000000E+000	0.0000000E+000	0.0000000E+000	-0.590332	0.0000000E+000	0.0000000E+000	0.0000000E+000	0.590332	97.0534	89.4097	-0.00111641
0.645874	0.124464	0.00471823	0.124553	-2.17095	260404	-0.000415556	-2.90993	5.22267e+07	74944.5	2	37	0.00511807	0.0410914	0	-1.43753	49	0.119664	0.0832375	1.0588	1.03351e-06	4.41794e-06	1.72106e-06	3.38189e-06	8.09141e-07	8.86951e-07	0.134827	0.0901744	0.193831	1.37244e-05	3.09422e-05	9.50889e-06	4.07184e-05	7.09099e-06	6.28954e-06	8.02292	0.304136	8.02868	2.17095	7.49445e+07	1.97699e+09	1.97841e+09	-87.829	0.0000000E+000	0.0000000E+000	0.0000000E+000	87.829	0.0000000E+000	0.0000000E+000	0.0000000E+000	-87.829	0.0000000E+000	0.0000000E+000	0.0000000E+000	-2.17095	0.0000000E+000	0.0000000E+000	0.0000000E+000	2.17095	26.3794	87.829	-0.00894203
0.0252177	0.132949	0.000884703	0.132952	-0.381267	261534	-0.00042149	-2.97492	7.13375e+09	315882	2	37	0.00511165	0.0384474	0	-2.317	49	0.115164	0.122152	0.272453	1.61649e-06	4.04293e-06	1.5533e-06	2.8054e-06	1.585e-06	1.05315e-06	0.134434	0.147135	0.184655	1.25247e-05	3.74721e-05	7.98702e-06	2.90095e-05	6.08042e-06	8.29511e-06	7.52137	0.0500507	7.52153	0.381267	3.15879e+08	4.74692e+10	4.74702e+10	-89.6187	0.0000000E+000	0.0000000E+000	0.0000000E+000	89.6187	0.0000000E+000	0.0000000E+000	0.0000000E+000	-89.6187	0.0000000E+000	0.0000000E+000	0.0000000E+000	-0.381267	0.0000000E+000	0.0000000E+000	0.0000000E+000	0.381267	150.275	89.6187	-0.172601
13658	0.105276	0.00621847	0.105459	-3.38044	261855	-0.000361369	-2.11421	1873.92	6.51548	3	37	0.00515607	0.0488915	0	-2.57997	49	0.320927	0.192118	5.77435	3.38683e-06	7.77529e-06	7.43581e-06	6.88453e-06	7.29309e-06	5.42092e-06	0.0915047	0.0135055	0.398434	4.45704e-06	4.19789e-05	3.02907e-06	1.14828e-05	6.29561e-06	4.31284e-06	9.46581	0.559129	9.48231	3.38044	6515.48	110304	110497	-86.6196	0.0000000E+000	0.0000000E+000	0.0000000E+000	86.6196	0.0000000E+000	0.0000000E+000	0.0000000E+000	-86.6196	0.0000000E+000	0.0000000E+000	0.0000000E+000	-3.38044	0.0000000E+000	0.0000000E+000	0.0000000E+000	3.38044	16.9296	86.6196	-0.000611041
533.464	0.117915	0.00326307	0.11796	-1.58514	261873	-0.000430135	-2.94032	91429.9	69.9631	3	37	0.00507787	0.0430472	0	-2.59437	49	0.291445	0.154489	5.8998	5.01903e-06	5.26393e-06	5.15192e-06	6.44956e-06	5.62288e-06	6.07256e-06	0.0551563	0.0201991	0.4608	2.92664e-06	1.79039e-05	2.93132e-06	1.29503e-05	5.64122e-06	3.03558e-06	8.47417	0.234506	8.47742	1.58514	69963.1	2.52821e+06	2.52917e+06	-88.4149	0.0000000E+000	0.0000000E+000	0.0000000E+000	88.4149	0.0000000E+000	0.0000000E+000	0.0000000E+000	-88.4149	0.0000000E+000	0.0000000E+000	0.0000000E+000	-1.58514	0.0000000E+000	0.0000000E+000	0.0000000E+000	1.58514	36.1363	88.4149	-0.00114362
20.8333	0.120634	0.00106934	0.120639	-0.507878	261889	-0.000434944	-3.02673	7.14404e+06	561.315	3	37	0.00511065	0.0423633	0	-2.60734	49	0.307684	0.216069	5.85613	4.48129e-06	5.68452e-06	6.45061e-06	4.32253e-06	6.47622e-06	8.29319e-06	0.125648	0.0677475	0.459699	8.71414e-06	3.70806e-05	3.66208e-06	3.49287e-05	4.98894e-06	9.22305e-06	8.28889	0.0734759	8.28922	0.507878	561318	6.33225e+07	6.3325e+07	-89.4921	0.0000000E+000	0.0000000E+000	0.0000000E+000	89.4921	0.0000000E+000	0.0000000E+000	0.0000000E+000	-89.4921	0.0000000E+000	0.0000000E+000	0.0000000E+000	-0.507878	0.0000000E+000	0.0000000E+000	0.0000000E+000	0.507878	112.811	89.4921	-0.000818388
0.813551	0.1234	0.00400975	0.123465	-1.86111	261930	-0.000409848	-2.94507	4.87886e+07	51459.4	3	37	0.00511771	0.0414507	0	-2.6413	49	0.106669	0.0650917	1.20417	1.5565e-06	3.75959e-06	1.6647e-06	1.8644e-06	1.59569e-06	1.50308e-06	0.119733	0.0878007	0.181536	8.5619e-06	3.07988e-05	1.54778e-05	2.99762e-05	1.00047e-05	9.83128e-06	8.09519	0.263044	8.09946	1.86111	5.14593e+07	1.58366e+09	1.5845e+09	-88.1389	0.0000000E+000	0.0000000E+000	0.0000000E+000	88.1389	0.0000000E+000	0.0000000E+000	0.0000000E+000	-88.1389	0.0000000E+000	0.0000000E+000	0.0000000E+000	-1.86111	0.0000000E+000	0.0000000E+000	0.0000000E+000	1.86111	30.775	88.1389	-0.00746336
0.0317924	0.132698	0.00108359	0.132702	-0.467856	262827	-0.000425519	-3.00351	4.6199e+09	308037	3	37	0.00511487	0.038544	0	-3.38019	49	0.112063	0.134975	0.28625	2.56144e-06	3.52023e-06	1.17704e-06	2.76799e-06	1.63646e-06	8.41387e-07	0.124407	0.114772	0.186423	1.65313e-05	2.46698e-05	9.34912e-06	3.46087e-05	8.37735e-06	2.31279e-06	7.53542	0.0615328	7.53567	0.467856	3.08038e+08	3.77228e+10	3.7724e+10	-89.5321	0.0000000E+000	0.0000000E+000	0.0000000E+000	89.5321	0.0000000E+000	0.0000000E+000	0.0000000E+000	-89.5321	0.0000000E+000	0.0000000E+000	0.0000000E+000	-0.467856	0.0000000E+000	0.0000000E+000	0.0000000E+000	0.467856	122.462	89.5321	-0.181216
0.0199946	0.132781	0.000745772	0.132783	-0.321803	263375	-0.000432756	-2.96367	1.06734e+10	336691	3	37	0.0051138	0.0385125	0	-3.92831	49	0.104732	0.166607	0.255843	2.13019e-06	4.09414e-06	8.15954e-07	1.92227e-06	9.84996e-07	4.24762e-07	0.132596	0.141299	0.183302	1.83796e-05	3.68644e-05	6.81485e-06	2.61055e-05	6.23499e-06	5.0787e-06	7.53099	0.0422984	7.5311	0.321803	3.36688e+08	5.99459e+10	5.99468e+10	-89.6782	0.0000000E+000	0.0000000E+000	0.0000000E+000	89.6782	0.0000000E+000	0.0000000E+000	0.0000000E+000	-89.6782	0.0000000E+000	0.0000000E+000	0.0000000E+000	-0.321803	0.0000000E+000	0.0000000E+000	0.0000000E+000	0.321803	178.044	89.6782	-0.302116