File: Python/Experiments/IRFB/240503-Felt-1p5M_FeCl2FeCl3-1M_HCl/Data/240503-EIS-Felt-1p5M_FeCl2FeCl3-1M_HCl-Wamup_10mLmin-4xFlowRate-20mHz_10ppd_05_PEIS_C15.mpt
EC-Lab ASCII FILE
Nb header lines : 75

Potentio Electrochemical Impedance Spectroscopy

Run on channel : 15 (SN 19485)
User :
Electrode connection : standard
Potential control : Ewe
Ewe ctrl range : min = -1.00 V, max = 1.00 V
Ewe,I filtering : 50 kHz
Safety Limits :
	Do not start on E overload
Channel : Grounded
Acquisition started on : 05/03/2024 14:39:22.131
Loaded Setting File :  NONE
Saved on :
	File : 240503-EIS-Felt-1p5M_FeCl2FeCl3-1M_HCl-Wamup_10mLmin-4xFlowRate-20mHz_10ppd_05_PEIS_C15.mpr
	Directory : C:\Data\mathias\IRFB\
	Host : 192.168.0.1
Device : VMP-300 (SN 0826)
Address : USB
EC-Lab for windows v11.52 (software)
Internet server v11.52 (firmware)
Command interpretor v11.52 (firmware)
Electrode material :
Initial state :
Electrolyte :
Comments :
Cable : special
Electrode surface area : 0.001 cm²
Characteristic mass : 0.001 g
Equivalent Weight : 0.000 g/eq.
Density : 0.000 g/cm3
Volume (V) : 0.001 cm³
Record EIS quality indicators
Cycle Definition : Charge/Discharge alternance
External device configuration :
   device type : Other
   device name : Other
   Analog OUT :
      mode : E/V
      unit : KNF Pump/ml/min
      max : 120.000 at 5.000 V
      min : 0.000 at 0.000 V
      current : 14.000
Mode                Single sine
E (V)               0.0000
vs.                 Eoc
tE (h:m:s)          0:00:0.0000
record              0
dI                  0.000
unit dI             mA
dt (s)              0.000
fi                  220.000
unit fi             kHz
ff                  20.000
unit ff             mHz
Nd                  10
Points              per decade
spacing             Logarithmic
Va (mV)             5.0
pw                  0.10
Na                  3
corr                0
E range min (V)     -1.000
E range max (V)     1.000
I Range             Auto
Bandwidth           8
nc cycles           2
goto Ns'            0
nr cycles           0
inc. cycle          0

freq/Hz	Re(Z)/Ohm	-Im(Z)/Ohm	|Z|/Ohm	Phase(Z)/deg	time/s	<Ewe>/V	<I>/mA	Cs/µF	Cp/µF	cycle number	I Range	|Ewe|/V	|I|/A	Ns	(Q-Qo)/mA.h	Analog OUT/V	THD Ewe/%	NSD Ewe/%	NSR Ewe/%	|Ewe h2|/V	|Ewe h3|/V	|Ewe h4|/V	|Ewe h5|/V	|Ewe h6|/V	|Ewe h7|/V	THD I/%	NSD I/%	NSR I/%	|I h2|/A	|I h3|/A	|I h4|/A	|I h5|/A	|I h6|/A	|I h7|/A	Re(Y)/Ohm-1	Im(Y)/Ohm-1	|Y|/Ohm-1	Phase(Y)/deg	Re(C)/nF	Im(C)/nF	|C|/nF	Phase(C)/deg	Re(M)	Im(M)	|M|	Phase(M)/deg	Re(Permittivity)	Im(Permittivity)	|Permittivity|	Phase(Permittivity)/deg	Re(Resistivity)/Ohm.cm	Im(Resistivity)/Ohm.cm	|Resistivity|/Ohm.cm	Phase(Resistivity)/deg	Re(Conductivity)/mS/cm	Im(Conductivity)/mS/cm	|Conductivity|/mS/cm	Phase(Conductivity)/deg	Tan(Delta)	Loss Angle(Delta)/deg	dq/mA.h
220003	0.0914745	-0.0195464	0.0935395	12.0617	253564	-0.00031721	-2.00137	-37.0105	-1.6161	1	37	0.00330156	0.0352959	0	-0.000912396	25.4	-1	-1	-1	0	0	0	0	0	0	-1	-1	-1	0	0	0	0	0	0	10.4547	-2.23397	10.6907	-12.0617	-1616.1	7563.14	7733.88	-102.062	0.0000000E+000	0.0000000E+000	0.0000000E+000	102.062	0.0000000E+000	0.0000000E+000	0.0000000E+000	-102.062	0.0000000E+000	0.0000000E+000	0.0000000E+000	12.0617	0.0000000E+000	0.0000000E+000	0.0000000E+000	-12.0617	4.67986	77.9383	-0.000912396
8590.41	0.10879	0.00655385	0.108987	-3.44751	253579	-0.000429538	-2.78793	2826.9	10.2224	1	37	0.00524988	0.0481696	0	-0.00991321	25.4	0.302545	0.13931	5.67407	2.77738e-06	7.82808e-06	6.22664e-06	2.33484e-06	9.02557e-06	4.53075e-06	0.107129	0.053672	0.402499	4.63541e-06	4.82843e-05	7.17842e-06	1.3567e-05	6.52043e-06	2.19415e-06	9.15878	0.551754	9.17539	3.44751	10222.4	169685	169993	-86.5525	0.0000000E+000	0.0000000E+000	0.0000000E+000	86.5525	0.0000000E+000	0.0000000E+000	0.0000000E+000	-86.5525	0.0000000E+000	0.0000000E+000	0.0000000E+000	-3.44751	0.0000000E+000	0.0000000E+000	0.0000000E+000	3.44751	16.5994	86.5525	-0.000796526
335.537	0.119457	0.00251322	0.119483	-1.20525	253598	-0.000425344	-2.86774	188734	83.5019	1	37	0.00506073	0.0423552	0	-0.0243819	25.4	0.308425	0.188598	5.9549	4.40151e-06	4.33974e-06	8.40535e-06	6.45917e-06	6.74936e-06	3.56e-06	0.0600365	0.0178415	0.456323	4.36831e-06	1.90994e-05	2.7252e-06	1.31565e-05	7.38965e-06	3.69841e-06	8.36753	0.176042	8.36938	1.20525	83502	3.96896e+06	3.96984e+06	-88.7947	0.0000000E+000	0.0000000E+000	0.0000000E+000	88.7947	0.0000000E+000	0.0000000E+000	0.0000000E+000	-88.7947	0.0000000E+000	0.0000000E+000	0.0000000E+000	-1.20525	0.0000000E+000	0.0000000E+000	0.0000000E+000	1.20525	47.5314	88.7947	-0.00105688
13.1083	0.122102	0.00133385	0.122109	-0.625877	253613	-0.00038961	-2.76746	9.10268e+06	1086.14	1	37	0.00511926	0.0419236	0	-0.0364468	25.4	0.316073	0.250613	4.15261	7.10898e-06	6.68893e-06	3.89138e-06	3.09079e-06	9.87927e-06	3.15117e-06	0.114251	0.0644318	0.345224	7.29278e-06	3.27909e-05	6.84177e-06	3.10682e-05	2.74788e-06	9.73996e-06	8.1889	0.0894559	8.18939	0.625877	1.08614e+06	9.94262e+07	9.94322e+07	-89.3741	0.0000000E+000	0.0000000E+000	0.0000000E+000	89.3741	0.0000000E+000	0.0000000E+000	0.0000000E+000	-89.3741	0.0000000E+000	0.0000000E+000	0.0000000E+000	-0.625877	0.0000000E+000	0.0000000E+000	0.0000000E+000	0.625877	91.5412	89.3741	-0.00111424
0.511825	0.125553	0.00602195	0.125697	-2.746	253674	-0.0004158	-2.85255	5.16371e+07	118518	1	37	0.00511477	0.0406913	0	-0.0845679	25.4	0.128979	0.0503285	0.953932	2.61057e-06	4.62224e-06	1.70107e-06	1.71417e-06	1.79887e-06	1.37341e-06	0.156332	0.0401364	0.208707	5.57475e-06	4.9267e-05	7.48926e-06	3.37247e-05	7.35018e-06	1.15743e-05	7.94651	0.381142	7.95564	2.746	1.18518e+08	2.47101e+09	2.47385e+09	-87.254	0.0000000E+000	0.0000000E+000	0.0000000E+000	87.254	0.0000000E+000	0.0000000E+000	0.0000000E+000	-87.254	0.0000000E+000	0.0000000E+000	0.0000000E+000	-2.746	0.0000000E+000	0.0000000E+000	0.0000000E+000	2.746	20.8492	87.254	-0.0144045
0.0199946	0.142393	0.00202897	0.142408	-0.816354	255098	-0.00044158	-2.90096	3.92313e+09	796370	1	37	0.00510881	0.0358745	0	-1.25817	25.4	0.0997896	0.0902244	0.245497	1.08827e-06	4.14253e-06	1.18603e-06	2.09871e-06	7.23032e-07	5.47477e-07	0.121597	0.15119	0.287484	1.5691e-05	2.80122e-05	1.25067e-05	2.41871e-05	4.04724e-06	5.72133e-06	7.02138	0.100048	7.02209	0.816354	7.96369e+08	5.58894e+10	5.58951e+10	-89.1836	0.0000000E+000	0.0000000E+000	0.0000000E+000	89.1836	0.0000000E+000	0.0000000E+000	0.0000000E+000	-89.1836	0.0000000E+000	0.0000000E+000	0.0000000E+000	-0.816354	0.0000000E+000	0.0000000E+000	0.0000000E+000	0.816354	70.1802	89.1836	-0.262002
10837.3	0.107501	0.00656477	0.107701	-3.49456	255114	-0.00034586	-2.09898	2237.07	8.31152	2	37	0.00515126	0.0478293	0	-1.26706	25.4	0.362376	0.132283	5.81312	5.25247e-06	9.34575e-06	9.22852e-06	6.64328e-06	4.5315e-06	7.2499e-06	0.0763813	0.0314877	0.395889	6.60863e-06	3.41099e-05	3.48858e-06	7.73863e-06	3.35071e-06	4.83986e-06	9.26771	0.565954	9.28498	3.49456	8311.52	136104	136358	-86.5054	0.0000000E+000	0.0000000E+000	0.0000000E+000	86.5054	0.0000000E+000	0.0000000E+000	0.0000000E+000	-86.5054	0.0000000E+000	0.0000000E+000	0.0000000E+000	-3.49456	0.0000000E+000	0.0000000E+000	0.0000000E+000	3.49456	16.3754	86.5054	-0.00058944
423.239	0.119278	0.00285801	0.119313	-1.37259	255132	-0.000435559	-2.89433	131574	75.4963	2	37	0.00547893	0.0459208	0	-1.28118	25.4	0.266747	0.130156	5.44367	8.9242e-06	5.38297e-06	4.85253e-06	4.68299e-06	5.62471e-06	3.30046e-06	0.0606247	0.014475	0.418177	5.00126e-06	2.36946e-05	3.55509e-06	1.07303e-05	3.64065e-06	5.45767e-06	8.37894	0.200767	8.38134	1.37259	75496.5	3.15082e+06	3.15172e+06	-88.6274	0.0000000E+000	0.0000000E+000	0.0000000E+000	88.6274	0.0000000E+000	0.0000000E+000	0.0000000E+000	-88.6274	0.0000000E+000	0.0000000E+000	0.0000000E+000	-1.37259	0.0000000E+000	0.0000000E+000	0.0000000E+000	1.37259	41.7347	88.6274	-0.000889075
16.5286	0.121918	0.00129061	0.121925	-0.606504	255148	-0.000418279	-2.76108	7.46085e+06	835.977	2	37	0.00511501	0.0419521	0	-1.29372	25.4	0.25929	0.212473	5.78238	5.20754e-06	2.69596e-06	4.44949e-06	5.0441e-06	4.74588e-06	7.63671e-06	0.10167	0.0555759	0.457949	8.62139e-06	2.78799e-05	4.43645e-06	2.78217e-05	6.55031e-06	1.05757e-05	8.2013	0.0868181	8.20176	0.606504	835980	7.89709e+07	7.89753e+07	-89.3935	0.0000000E+000	0.0000000E+000	0.0000000E+000	89.3935	0.0000000E+000	0.0000000E+000	0.0000000E+000	-89.3935	0.0000000E+000	0.0000000E+000	0.0000000E+000	-0.606504	0.0000000E+000	0.0000000E+000	0.0000000E+000	0.606504	94.4654	89.3935	-0.000688785
0.645874	0.125061	0.0050076	0.125161	-2.29298	255197	-0.000418034	-2.82915	4.92088e+07	78770.8	2	37	0.00511866	0.0408967	0	-1.33227	25.4	0.120542	0.0898755	1.06095	1.44102e-06	4.46346e-06	1.54408e-06	2.95623e-06	1.33948e-06	1.21845e-06	0.18184	0.119245	0.193945	4.09342e-05	3.88872e-05	2.81052e-05	3.20404e-05	5.35489e-06	1.62945e-05	7.98333	0.319664	7.98973	2.29298	7.87707e+07	1.96723e+09	1.96881e+09	-87.707	0.0000000E+000	0.0000000E+000	0.0000000E+000	87.707	0.0000000E+000	0.0000000E+000	0.0000000E+000	-87.707	0.0000000E+000	0.0000000E+000	0.0000000E+000	-2.29298	0.0000000E+000	0.0000000E+000	0.0000000E+000	2.29298	24.9741	87.707	-0.0089179
0.0252177	0.142372	0.00251646	0.142394	-1.01261	256327	-0.000431072	-2.85142	2.50798e+09	783284	2	37	0.00511316	0.0359084	0	-2.25266	25.4	0.114605	0.100801	0.265841	2.39956e-06	4.50582e-06	1.27256e-06	1.74574e-06	1.26606e-06	7.83087e-07	0.119922	0.126924	0.275069	1.03428e-05	3.01304e-05	9.46891e-06	2.55787e-05	7.50921e-06	2.98285e-06	7.02165	0.124109	7.02274	1.01261	7.83284e+08	4.43153e+10	4.43223e+10	-88.9874	0.0000000E+000	0.0000000E+000	0.0000000E+000	88.9874	0.0000000E+000	0.0000000E+000	0.0000000E+000	-88.9874	0.0000000E+000	0.0000000E+000	0.0000000E+000	-1.01261	0.0000000E+000	0.0000000E+000	0.0000000E+000	1.01261	56.5763	88.9874	-0.196386
13658	0.106219	0.00625512	0.106403	-3.37019	256648	-0.000346475	-2.0052	1862.94	6.43815	3	37	0.00517035	0.048592	0	-2.48008	25.4	0.348911	0.166304	5.81143	7.079e-06	7.42134e-06	4.46459e-06	8.26104e-06	4.57042e-06	8.45492e-06	0.0903053	0.0105328	0.391203	4.76069e-06	4.25179e-05	4.59445e-06	3.79937e-06	4.79143e-06	4.71381e-06	9.38197	0.552493	9.39822	3.37019	6438.14	109327	109517	-86.6298	0.0000000E+000	0.0000000E+000	0.0000000E+000	86.6298	0.0000000E+000	0.0000000E+000	0.0000000E+000	-86.6298	0.0000000E+000	0.0000000E+000	0.0000000E+000	-3.37019	0.0000000E+000	0.0000000E+000	0.0000000E+000	3.37019	16.9812	86.6298	-0.000618347
533.464	0.118878	0.00325836	0.118923	-1.57004	256666	-0.000448235	-2.90265	91562.2	68.7358	3	37	0.00509239	0.0428209	0	-2.49444	25.4	0.265496	0.231308	5.92584	3.56608e-06	7.3915e-06	3.15879e-06	5.72031e-06	5.63877e-06	3.90129e-06	0.0596591	0.0147014	0.445532	5.66647e-06	1.82996e-05	5.73534e-06	1.08219e-05	8.80633e-06	5.20625e-06	8.40565	0.230392	8.40881	1.57004	68735.8	2.50776e+06	2.50871e+06	-88.43	0.0000000E+000	0.0000000E+000	0.0000000E+000	88.43	0.0000000E+000	0.0000000E+000	0.0000000E+000	-88.43	0.0000000E+000	0.0000000E+000	0.0000000E+000	-1.57004	0.0000000E+000	0.0000000E+000	0.0000000E+000	1.57004	36.4841	88.43	-0.00103408
20.8333	0.121985	0.00125682	0.121991	-0.590303	256682	-0.000457444	-2.99623	6.07838e+06	645.175	3	37	0.00511985	0.0419689	0	-2.50712	25.4	0.336806	0.196405	5.80059	6.03816e-06	9.06167e-06	3.03867e-06	6.07908e-06	7.78226e-06	7.41547e-06	0.117691	0.081794	0.459491	6.41943e-06	3.58075e-05	5.0105e-06	2.96633e-05	1.15128e-05	4.69513e-06	8.19686	0.0844531	8.1973	0.590303	645173	6.26195e+07	6.26228e+07	-89.4097	0.0000000E+000	0.0000000E+000	0.0000000E+000	89.4097	0.0000000E+000	0.0000000E+000	0.0000000E+000	-89.4097	0.0000000E+000	0.0000000E+000	0.0000000E+000	-0.590303	0.0000000E+000	0.0000000E+000	0.0000000E+000	0.590303	97.0582	89.4097	-0.000901097
0.813551	0.12465	0.00424335	0.124722	-1.94972	256723	-0.000416538	-2.79328	4.61027e+07	53365	3	37	0.00511793	0.0410346	0	-2.53883	25.4	0.115764	0.0628521	1.20902	1.57358e-06	3.77438e-06	1.56572e-06	2.59259e-06	1.94017e-06	1.70449e-06	0.125036	0.139585	0.189391	1.08492e-05	3.58683e-05	1.27326e-05	3.01744e-05	7.46534e-06	5.70674e-06	8.01318	0.272786	8.01782	1.94972	5.33649e+07	1.56762e+09	1.56853e+09	-88.0503	0.0000000E+000	0.0000000E+000	0.0000000E+000	88.0503	0.0000000E+000	0.0000000E+000	0.0000000E+000	-88.0503	0.0000000E+000	0.0000000E+000	0.0000000E+000	-1.94972	0.0000000E+000	0.0000000E+000	0.0000000E+000	1.94972	29.3754	88.0503	-0.00496371
0.0317924	0.142265	0.00332201	0.142303	-1.33767	257620	-0.000426255	-2.81749	1.50694e+09	821233	3	37	0.00510831	0.0358973	0	-3.2357	25.4	0.103624	0.161399	0.287719	2.37451e-06	3.21009e-06	1.57455e-06	2.27192e-06	1.7018e-06	9.03211e-07	0.124639	0.158172	0.288851	1.78145e-05	2.19766e-05	1.07605e-05	2.90453e-05	1.00966e-05	4.15321e-06	7.02532	0.164048	7.02723	1.33767	8.21235e+08	3.51692e+10	3.51788e+10	-88.6623	0.0000000E+000	0.0000000E+000	0.0000000E+000	88.6623	0.0000000E+000	0.0000000E+000	0.0000000E+000	-88.6623	0.0000000E+000	0.0000000E+000	0.0000000E+000	-1.33767	0.0000000E+000	0.0000000E+000	0.0000000E+000	1.33767	42.8249	88.6623	-0.179667
0.0199946	0.142361	0.00190979	0.142374	-0.768585	258168	-0.000443204	-2.89912	4.16794e+09	749954	3	37	0.00511015	0.0358925	0	-3.7308	25.4	0.102297	0.130784	0.24145	2.44993e-06	2.85044e-06	1.13326e-06	2.86394e-06	1.38678e-06	5.4446e-07	0.127258	0.137626	0.2974	1.37626e-05	2.33756e-05	1.05659e-05	3.2051e-05	4.70584e-06	8.5816e-06	7.02314	0.0942165	7.02378	0.768585	7.49954e+08	5.59035e+10	5.59085e+10	-89.2314	0.0000000E+000	0.0000000E+000	0.0000000E+000	89.2314	0.0000000E+000	0.0000000E+000	0.0000000E+000	-89.2314	0.0000000E+000	0.0000000E+000	0.0000000E+000	-0.768585	0.0000000E+000	0.0000000E+000	0.0000000E+000	0.768585	74.5426	89.2314	-0.266067