File: Python/Experiments/IRFB/240415-Felt-0p5M_FeCl2FeCl23-1M_HCl/Data/240416-EIS-0p5M_FeCl2FeCl3-1M_HCl-10mLmin_Dampened-25mHz_10ppd_C15.mpt
EC-Lab ASCII FILE
Nb header lines : 66

Potentio Electrochemical Impedance Spectroscopy

Run on channel : 15 (SN 19485)
User :
Electrode connection : standard
Potential control : Ewe
Ewe ctrl range : min = -1.00 V, max = 1.00 V
Ewe,I filtering : <None>
Safety Limits :
	Do not start on E overload
Channel : Floating
Acquisition started on : 04/16/2024 14:28:58.615
Loaded Setting File :  NONE
Saved on :
	File : 240416-EIS-0p5M_FeCl2FeCl3-1M_HCl-10mLmin_Dampened-25mHz_10ppd_C15.mpr
	Directory : C:\Data\mathias\IRFB\
	Host : 192.168.0.1
Device : VMP-300 (SN 0826)
Address : USB
EC-Lab for windows v11.52 (software)
Internet server v11.52 (firmware)
Command interpretor v11.52 (firmware)
Electrode material :
Initial state :
Electrolyte :
Comments :
Cable : special
Electrode surface area : 0.001 cm²
Characteristic mass : 0.001 g
Equivalent Weight : 0.000 g/eq.
Density : 0.000 g/cm3
Volume (V) : 0.001 cm³
Record EIS quality indicators
Cycle Definition : Charge/Discharge alternance
Mode                Single sine
E (V)               0.0000
vs.                 Eoc
tE (h:m:s)          0:00:0.0000
record              0
dI                  0.000
unit dI             mA
dt (s)              0.000
fi                  920.000
unit fi             kHz
ff                  25.000
unit ff             mHz
Nd                  10
Points              per decade
spacing             Logarithmic
Va (mV)             5.0
pw                  0.10
Na                  3
corr                0
E range min (V)     -1.000
E range max (V)     1.000
I Range             Auto
Bandwidth           8
nc cycles           0
goto Ns'            0
nr cycles           0
inc. cycle          1

freq/Hz	Re(Z)/Ohm	-Im(Z)/Ohm	|Z|/Ohm	Phase(Z)/deg	time/s	<Ewe>/V	<I>/mA	Cs/µF	Cp/µF	cycle number	I Range	|Ewe|/V	|I|/A	Ns	(Q-Qo)/mA.h	THD Ewe/%	NSD Ewe/%	NSR Ewe/%	|Ewe h2|/V	|Ewe h3|/V	|Ewe h4|/V	|Ewe h5|/V	|Ewe h6|/V	|Ewe h7|/V	THD I/%	NSD I/%	NSR I/%	|I h2|/A	|I h3|/A	|I h4|/A	|I h5|/A	|I h6|/A	|I h7|/A	Re(Y)/Ohm-1	Im(Y)/Ohm-1	|Y|/Ohm-1	Phase(Y)/deg	Re(C)/nF	Im(C)/nF	|C|/nF	Phase(C)/deg	Re(M)	Im(M)	|M|	Phase(M)/deg	Re(Permittivity)	Im(Permittivity)	|Permittivity|	Phase(Permittivity)/deg	Re(Resistivity)/Ohm.cm	Im(Resistivity)/Ohm.cm	|Resistivity|/Ohm.cm	Phase(Resistivity)/deg	Re(Conductivity)/mS/cm	Im(Conductivity)/mS/cm	|Conductivity|/mS/cm	Phase(Conductivity)/deg	Tan(Delta)	Loss Angle(Delta)/deg	dq/mA.h
920001	-0.0964315	-0.222553	0.242546	113.427	1.97648	-5.15178e-05	-0.50502	-0.777319	-0.654448	1	37	0.000714448	0.00294561	0	-0.00028426	-1	-1	-1	0	0	0	0	0	0	-1	-1	-1	0	0	0	0	0	0	-1.63919	-3.78306	4.12292	-113.427	-654.448	-283.571	713.243	156.573	0.0000000E+000	0.0000000E+000	0.0000000E+000	-156.573	0.0000000E+000	0.0000000E+000	0.0000000E+000	156.573	0.0000000E+000	0.0000000E+000	0.0000000E+000	113.427	0.0000000E+000	0.0000000E+000	0.0000000E+000	-113.427	0.433297	23.427	-0.00028426
292440	0.0733761	-0.0283891	0.0786765	21.1514	7.71748	-5.04367e-05	-0.442486	-19.1704	-2.496	1	37	0.0017687	0.0224806	0	-0.00103345	-1	-1	-1	0	0	0	0	0	0	-1	-1	-1	0	0	0	0	0	0	11.854	-4.58629	12.7103	-21.1514	-2496	6451.31	6917.33	-111.151	0.0000000E+000	0.0000000E+000	0.0000000E+000	111.151	0.0000000E+000	0.0000000E+000	0.0000000E+000	-111.151	0.0000000E+000	0.0000000E+000	0.0000000E+000	21.1514	0.0000000E+000	0.0000000E+000	0.0000000E+000	-21.1514	2.58466	68.8486	-0.000127717
92961.3	0.0847712	-0.00438171	0.0848843	2.95891	13.3235	-5.7986e-05	-0.505391	-390.727	-1.04113	1	37	0.00524412	0.0617797	0	-0.0017983	0.343651	0.151602	6.14836	1.00115e-05	5.46432e-06	7.51802e-06	7.77002e-06	6.25403e-06	3.11948e-06	0.0954915	0.0184378	0.35619	1.20415e-05	5.70768e-05	4.0479e-06	3.00201e-06	3.65875e-06	3.00084e-06	11.765	-0.608119	11.7807	-2.95891	-1041.14	20142.4	20169.3	-92.9589	0.0000000E+000	0.0000000E+000	0.0000000E+000	92.9589	0.0000000E+000	0.0000000E+000	0.0000000E+000	-92.9589	0.0000000E+000	0.0000000E+000	0.0000000E+000	2.95891	0.0000000E+000	0.0000000E+000	0.0000000E+000	-2.95891	19.3466	87.0411	-0.000240173
29552	0.0906848	0.00642571	0.0909121	-4.05307	19.0635	-4.10976e-05	-0.415926	838.13	4.18707	1	37	0.00519319	0.0571232	0	-0.00234873	0.366415	0.143311	6.33034	8.1991e-06	1.09492e-05	5.15647e-06	6.19955e-06	6.57711e-06	6.09428e-06	0.127834	0.0199463	0.384609	8.86197e-06	7.16351e-05	1.5186e-06	9.76105e-06	3.50318e-06	2.21667e-06	10.9721	0.777459	10.9996	4.05307	4187.07	59091.3	59239.4	-85.9469	0.0000000E+000	0.0000000E+000	0.0000000E+000	85.9469	0.0000000E+000	0.0000000E+000	0.0000000E+000	-85.9469	0.0000000E+000	0.0000000E+000	0.0000000E+000	-4.05307	0.0000000E+000	0.0000000E+000	0.0000000E+000	4.05307	14.1128	85.9469	-0.000139439
9395.12	0.100484	0.0112216	0.101109	-6.37213	24.807	-0.000170166	-1.27009	1509.6	18.5949	1	37	0.00524744	0.0518989	0	-0.00357454	0.310126	0.179333	6.15536	3.31614e-06	7.29744e-06	5.92407e-06	4.64045e-06	7.60075e-06	7.27341e-06	0.121779	0.0517099	0.42773	1.07592e-05	6.08396e-05	6.19048e-06	9.2139e-06	3.57037e-06	3.23404e-06	9.82922	1.09768	9.89033	6.37213	18594.9	166509	167544	-83.6279	0.0000000E+000	0.0000000E+000	0.0000000E+000	83.6279	0.0000000E+000	0.0000000E+000	0.0000000E+000	-83.6279	0.0000000E+000	0.0000000E+000	0.0000000E+000	-6.37213	0.0000000E+000	0.0000000E+000	0.0000000E+000	6.37213	8.95452	83.6279	-0.000395664
2985.95	0.110682	0.0100201	0.111134	-5.17294	31.2587	-0.000180623	-1.19099	5319.42	43.2428	1	37	0.00516836	0.0465056	0	-0.00550166	0.319544	0.169183	6.32259	4.7652e-06	5.43937e-06	8.34649e-06	5.17099e-06	6.70049e-06	7.10379e-06	0.06775	0.0382491	0.485221	8.8374e-06	2.76784e-05	3.69633e-06	8.24444e-06	4.26787e-06	4.77822e-06	8.96148	0.811291	8.99813	5.17294	43242.8	477658	479611	-84.8271	0.0000000E+000	0.0000000E+000	0.0000000E+000	84.8271	0.0000000E+000	0.0000000E+000	0.0000000E+000	-84.8271	0.0000000E+000	0.0000000E+000	0.0000000E+000	-5.17294	0.0000000E+000	0.0000000E+000	0.0000000E+000	5.17294	11.0459	84.8271	-0.000460159
949.092	0.116733	0.00587438	0.116881	-2.88088	37.9009	-0.000177361	-1.17307	28546.3	72.1089	1	37	0.00508591	0.0435137	0	-0.00766135	0.340607	0.14715	6.40831	8.12762e-06	5.08124e-06	4.44694e-06	8.03068e-06	4.94106e-06	7.8329e-06	0.0438469	0.0951753	0.523088	7.25282e-06	7.75344e-06	4.09747e-06	1.32072e-05	5.66709e-06	3.18806e-06	8.54492	0.430008	8.55574	2.88088	72108.9	1.43291e+06	1.43473e+06	-87.1191	0.0000000E+000	0.0000000E+000	0.0000000E+000	87.1191	0.0000000E+000	0.0000000E+000	0.0000000E+000	-87.1191	0.0000000E+000	0.0000000E+000	0.0000000E+000	-2.88088	0.0000000E+000	0.0000000E+000	0.0000000E+000	2.88088	19.8715	87.1191	-0.000424643
301.641	0.119142	0.00290579	0.119177	-1.39713	44.3157	-0.000153259	-1.25167	181579	107.946	1	37	0.00501848	0.0421094	0	-0.00976094	0.424049	0.124169	6.46592	4.60188e-06	8.12872e-06	4.10196e-06	7.24395e-06	1.01663e-05	1.1967e-05	0.0761619	0.0296064	0.524109	7.6526e-06	2.42818e-05	7.15113e-06	1.26999e-05	7.50506e-06	4.0701e-06	8.38838	0.204587	8.39087	1.39713	107946	4.42596e+06	4.42728e+06	-88.6029	0.0000000E+000	0.0000000E+000	0.0000000E+000	88.6029	0.0000000E+000	0.0000000E+000	0.0000000E+000	-88.6029	0.0000000E+000	0.0000000E+000	0.0000000E+000	-1.39713	0.0000000E+000	0.0000000E+000	0.0000000E+000	1.39713	41.0015	88.6029	-0.000414824
95.8897	0.120182	0.00167303	0.120194	-0.797552	49.8379	-0.000163772	-1.22848	992075	192.216	1	37	0.00538881	0.0448344	0	-0.0115433	0.318538	0.191666	6.00376	8.70548e-06	9.06258e-06	6.62462e-06	3.8838e-06	6.21567e-06	4.48305e-06	0.104915	0.0245732	0.498626	8.95551e-06	3.58994e-05	4.56301e-06	2.68563e-05	7.41912e-06	4.81306e-06	8.3191	0.115809	8.31991	0.797552	192216	1.38078e+07	1.38091e+07	-89.2024	0.0000000E+000	0.0000000E+000	0.0000000E+000	89.2024	0.0000000E+000	0.0000000E+000	0.0000000E+000	-89.2024	0.0000000E+000	0.0000000E+000	0.0000000E+000	-0.797552	0.0000000E+000	0.0000000E+000	0.0000000E+000	0.797552	71.8349	89.2024	-0.000408111
30.4779	0.121053	0.00159507	0.121063	-0.754921	55.3896	-0.000159969	-1.20611	3.27383e+06	568.315	1	37	0.00543116	0.0448621	0	-0.013537	0.3271	0.284877	5.93872	5.61527e-06	8.17873e-06	7.54121e-06	4.03122e-06	6.42091e-06	7.52344e-06	0.163209	0.03302	0.487804	7.07853e-06	3.51606e-05	3.02571e-06	6.32735e-05	4.59912e-06	3.3534e-06	8.25942	0.108831	8.26014	0.754921	568315	4.31306e+07	4.31343e+07	-89.2451	0.0000000E+000	0.0000000E+000	0.0000000E+000	89.2451	0.0000000E+000	0.0000000E+000	0.0000000E+000	-89.2451	0.0000000E+000	0.0000000E+000	0.0000000E+000	-0.754921	0.0000000E+000	0.0000000E+000	0.0000000E+000	0.754921	75.892	89.2451	-0.000423651
9.68695	0.12203	0.00180476	0.122043	-0.847314	60.8662	-0.000162299	-1.21841	9.10363e+06	1990.79	1	37	0.005432	0.0445089	0	-0.0155304	0.342766	0.167891	5.90708	3.72384e-06	8.44061e-06	7.19809e-06	7.87348e-06	4.81661e-06	6.48188e-06	0.148881	0.110871	0.472205	2.26992e-05	4.02734e-05	6.26717e-06	4.0761e-05	1.32064e-05	7.93161e-06	8.19294	0.121169	8.19383	0.847314	1.99079e+06	1.34609e+08	1.34623e+08	-89.1527	0.0000000E+000	0.0000000E+000	0.0000000E+000	89.1527	0.0000000E+000	0.0000000E+000	0.0000000E+000	-89.1527	0.0000000E+000	0.0000000E+000	0.0000000E+000	-0.847314	0.0000000E+000	0.0000000E+000	0.0000000E+000	0.847314	67.6156	89.1527	-0.00052284
3.07821	0.123174	0.00252251	0.1232	-1.17321	69.4838	-0.000172462	-1.27578	2.04969e+07	8592.78	1	37	0.00543132	0.0440855	0	-0.0187802	0.131348	0.0964583	2.3523	1.15462e-06	4.52723e-06	3.45163e-06	1.52663e-06	2.24489e-06	8.99438e-07	0.136742	0.159726	0.298755	9.25905e-06	3.93024e-05	6.01565e-06	4.20685e-05	1.02945e-05	5.03352e-06	8.1152	0.166193	8.1169	1.17321	8.59279e+06	4.19585e+08	4.19673e+08	-88.8268	0.0000000E+000	0.0000000E+000	0.0000000E+000	88.8268	0.0000000E+000	0.0000000E+000	0.0000000E+000	-88.8268	0.0000000E+000	0.0000000E+000	0.0000000E+000	-1.17321	0.0000000E+000	0.0000000E+000	0.0000000E+000	1.17321	48.83	88.8268	-0.000688926
0.978641	0.124429	0.00442472	0.124508	-2.03659	92.0456	-0.000156172	-1.1532	3.67546e+07	46418.3	1	37	0.00542657	0.0435842	0	-0.0246202	0.13973	0.0582902	1.35324	1.60375e-06	6.13961e-06	2.42096e-06	2.14877e-06	1.35361e-06	9.0278e-07	0.171192	0.149662	0.296462	5.0209e-05	4.44063e-05	1.32467e-05	2.41534e-05	1.36128e-05	7.38298e-06	8.02656	0.285426	8.03163	2.03659	4.64184e+07	1.30535e+09	1.30617e+09	-87.9634	0.0000000E+000	0.0000000E+000	0.0000000E+000	87.9634	0.0000000E+000	0.0000000E+000	0.0000000E+000	-87.9634	0.0000000E+000	0.0000000E+000	0.0000000E+000	-2.03659	0.0000000E+000	0.0000000E+000	0.0000000E+000	2.03659	28.1214	87.9634	-0.000582917
0.311199	0.127281	0.0103578	0.127702	-4.65235	158.993	-0.000151979	-1.08019	4.93757e+07	324831	1	37	0.0054255	0.0424857	0	-0.052211	0.12431	0.0808892	0.7428	1.52682e-06	5.23997e-06	1.92216e-06	2.71054e-06	1.01556e-06	1.45505e-06	0.21448	0.466499	0.329799	3.31842e-05	3.95824e-05	3.94579e-05	4.08172e-05	3.80352e-05	1.95715e-05	7.80495	0.635149	7.83075	4.65235	3.24831e+08	3.99165e+09	4.00484e+09	-85.3476	0.0000000E+000	0.0000000E+000	0.0000000E+000	85.3476	0.0000000E+000	0.0000000E+000	0.0000000E+000	-85.3476	0.0000000E+000	0.0000000E+000	0.0000000E+000	-4.65235	0.0000000E+000	0.0000000E+000	0.0000000E+000	4.65235	12.2884	85.3476	-0.00860298
0.0988834	0.140776	0.0220057	0.142486	-8.88439	366.115	-0.00015118	-1.0563	7.31411e+07	1.74457e+06	1	37	0.00541973	0.0380369	0	-0.122124	0.116339	0.107685	0.429234	1.8887e-06	4.98131e-06	1.56656e-06	2.28987e-06	1.26132e-06	9.34272e-07	0.439689	0.14405	0.501778	2.40902e-05	2.54246e-05	1.31253e-05	4.57789e-05	3.40334e-05	0.000150202	6.93403	1.08391	7.01824	8.88439	1.74457e+09	1.11605e+10	1.1296e+10	-81.1156	0.0000000E+000	0.0000000E+000	0.0000000E+000	81.1156	0.0000000E+000	0.0000000E+000	0.0000000E+000	-81.1156	0.0000000E+000	0.0000000E+000	0.0000000E+000	-8.88439	0.0000000E+000	0.0000000E+000	0.0000000E+000	8.88439	6.39727	81.1156	-0.0317159
0.0314526	0.1624	0.0153748	0.163127	-5.40821	1014.28	-0.000127073	-0.976296	3.2912e+08	2.92365e+06	1	37	0.00541104	0.0331708	0	-0.250504	0.121693	0.108584	0.273328	1.44648e-06	5.42016e-06	1.98165e-06	2.4218e-06	4.53257e-07	1.08537e-06	0.132311	0.112458	0.841935	4.25373e-06	3.19634e-05	1.05571e-05	2.60697e-05	6.98023e-06	4.71738e-06	6.10292	0.577778	6.13021	5.40821	2.92365e+09	3.08818e+10	3.10198e+10	-84.5918	0.0000000E+000	0.0000000E+000	0.0000000E+000	84.5918	0.0000000E+000	0.0000000E+000	0.0000000E+000	-84.5918	0.0000000E+000	0.0000000E+000	0.0000000E+000	-5.40821	0.0000000E+000	0.0000000E+000	0.0000000E+000	5.40821	10.5627	84.5918	-0.0420071
0.0250094	0.164875	0.0137951	0.165451	-4.78281	1258.74	-0.000134589	-0.956998	4.61309e+08	3.20704e+06	1	37	0.00541261	0.0327144	0	-0.330598	0.136048	0.105765	0.25947	2.18334e-06	5.37212e-06	1.62325e-06	3.4396e-06	1.5769e-06	1.00652e-06	0.17133	0.0957744	0.851694	1.63357e-05	3.81442e-05	1.10614e-05	3.0792e-05	5.96137e-06	4.7268e-06	6.02305	0.50395	6.0441	4.78281	3.20703e+09	3.83295e+10	3.84634e+10	-85.2172	0.0000000E+000	0.0000000E+000	0.0000000E+000	85.2172	0.0000000E+000	0.0000000E+000	0.0000000E+000	-85.2172	0.0000000E+000	0.0000000E+000	0.0000000E+000	-4.78281	0.0000000E+000	0.0000000E+000	0.0000000E+000	4.78281	11.9517	85.2172	-0.0800941