File: Python/Experiments/IRFB/240415-Felt-0p5M_FeCl2FeCl23-1M_HCl/Data/240416-EIS-0p5M_FeCl2FeCl3-1M_HCl-05mLmin_Dampened-25mHz_10ppd_C15.mpt
EC-Lab ASCII FILE
Nb header lines : 66

Potentio Electrochemical Impedance Spectroscopy

Run on channel : 15 (SN 19485)
User :
Electrode connection : standard
Potential control : Ewe
Ewe ctrl range : min = -1.00 V, max = 1.00 V
Ewe,I filtering : <None>
Safety Limits :
	Do not start on E overload
Channel : Floating
Acquisition started on : 04/16/2024 14:05:59.642
Loaded Setting File :  NONE
Saved on :
	File : 240416-EIS-0p5M_FeCl2FeCl3-1M_HCl-05mLmin_Dampened-25mHz_10ppd_C15.mpr
	Directory : C:\Data\mathias\IRFB\
	Host : 192.168.0.1
Device : VMP-300 (SN 0826)
Address : USB
EC-Lab for windows v11.52 (software)
Internet server v11.52 (firmware)
Command interpretor v11.52 (firmware)
Electrode material :
Initial state :
Electrolyte :
Comments :
Cable : special
Electrode surface area : 0.001 cm²
Characteristic mass : 0.001 g
Equivalent Weight : 0.000 g/eq.
Density : 0.000 g/cm3
Volume (V) : 0.001 cm³
Record EIS quality indicators
Cycle Definition : Charge/Discharge alternance
Mode                Single sine
E (V)               0.0000
vs.                 Eoc
tE (h:m:s)          0:00:0.0000
record              0
dI                  0.000
unit dI             mA
dt (s)              0.000
fi                  920.000
unit fi             kHz
ff                  25.000
unit ff             mHz
Nd                  10
Points              per decade
spacing             Logarithmic
Va (mV)             5.0
pw                  0.10
Na                  3
corr                0
E range min (V)     -1.000
E range max (V)     1.000
I Range             Auto
Bandwidth           8
nc cycles           0
goto Ns'            0
nr cycles           0
inc. cycle          1

freq/Hz	Re(Z)/Ohm	-Im(Z)/Ohm	|Z|/Ohm	Phase(Z)/deg	time/s	<Ewe>/V	<I>/mA	Cs/µF	Cp/µF	cycle number	I Range	|Ewe|/V	|I|/A	Ns	(Q-Qo)/mA.h	THD Ewe/%	NSD Ewe/%	NSR Ewe/%	|Ewe h2|/V	|Ewe h3|/V	|Ewe h4|/V	|Ewe h5|/V	|Ewe h6|/V	|Ewe h7|/V	THD I/%	NSD I/%	NSR I/%	|I h2|/A	|I h3|/A	|I h4|/A	|I h5|/A	|I h6|/A	|I h7|/A	Re(Y)/Ohm-1	Im(Y)/Ohm-1	|Y|/Ohm-1	Phase(Y)/deg	Re(C)/nF	Im(C)/nF	|C|/nF	Phase(C)/deg	Re(M)	Im(M)	|M|	Phase(M)/deg	Re(Permittivity)	Im(Permittivity)	|Permittivity|	Phase(Permittivity)/deg	Re(Resistivity)/Ohm.cm	Im(Resistivity)/Ohm.cm	|Resistivity|/Ohm.cm	Phase(Resistivity)/deg	Re(Conductivity)/mS/cm	Im(Conductivity)/mS/cm	|Conductivity|/mS/cm	Phase(Conductivity)/deg	Tan(Delta)	Loss Angle(Delta)/deg	dq/mA.h
920001	-0.0976231	-0.220254	0.240919	113.904	1.97748	-7.99263e-05	-0.449186	-0.785433	-0.656468	1	37	0.000709598	0.00294538	0	-0.000264527	-1	-1	-1	0	0	0	0	0	0	-1	-1	-1	0	0	0	0	0	0	-1.68194	-3.79473	4.15078	-113.904	-656.468	-290.967	718.061	156.096	0.0000000E+000	0.0000000E+000	0.0000000E+000	-156.096	0.0000000E+000	0.0000000E+000	0.0000000E+000	156.096	0.0000000E+000	0.0000000E+000	0.0000000E+000	113.904	0.0000000E+000	0.0000000E+000	0.0000000E+000	-113.904	0.443231	23.9044	-0.000264527
292440	0.0733754	-0.0280547	0.0785558	20.9241	7.71548	-7.87146e-05	-0.359368	-19.399	-2.47418	1	37	0.00176519	0.0224706	0	-0.000968819	-1	-1	-1	0	0	0	0	0	0	-1	-1	-1	0	0	0	0	0	0	11.8903	-4.5462	12.7298	-20.9241	-2474.18	6471.09	6927.96	-110.924	0.0000000E+000	0.0000000E+000	0.0000000E+000	110.924	0.0000000E+000	0.0000000E+000	0.0000000E+000	-110.924	0.0000000E+000	0.0000000E+000	0.0000000E+000	20.9241	0.0000000E+000	0.0000000E+000	0.0000000E+000	-20.9241	2.61545	69.0759	-0.000117565
92961.3	0.0850272	-0.00419561	0.0851306	2.82493	13.3205	-0.000100058	-0.433849	-408.059	-0.991153	1	37	0.00523911	0.061542	0	-0.0017471	0.292118	0.162924	6.16767	8.1189e-06	5.77556e-06	3.74872e-06	2.00634e-06	8.6544e-06	3.57187e-06	0.0978659	0.0144215	0.35321	1.0281e-05	5.88035e-05	5.19599e-06	3.29104e-06	2.17065e-06	2.36627e-06	11.7324	-0.578926	11.7467	-2.82493	-991.153	20086.5	20110.9	-92.8249	0.0000000E+000	0.0000000E+000	0.0000000E+000	92.8249	0.0000000E+000	0.0000000E+000	0.0000000E+000	-92.8249	0.0000000E+000	0.0000000E+000	0.0000000E+000	2.82493	0.0000000E+000	0.0000000E+000	0.0000000E+000	-2.82493	20.2658	87.1751	-7.64954e-05
29552	0.0911182	0.0067192	0.0913656	-4.21745	19.0615	-9.8921e-05	-0.416913	801.522	4.33496	1	37	0.00518896	0.0567934	0	-0.00261133	0.377298	0.1735	6.1865	9.92994e-06	7.87655e-06	5.37701e-06	6.69229e-06	2.98691e-06	9.16681e-06	0.129183	0.0183928	0.383984	1.36699e-05	7.10362e-05	4.58776e-06	9.88926e-06	3.03771e-06	4.08474e-06	10.9154	0.804919	10.945	4.21745	4334.96	58785.8	58945.4	-85.7826	0.0000000E+000	0.0000000E+000	0.0000000E+000	85.7826	0.0000000E+000	0.0000000E+000	0.0000000E+000	-85.7826	0.0000000E+000	0.0000000E+000	0.0000000E+000	-4.21745	0.0000000E+000	0.0000000E+000	0.0000000E+000	4.21745	13.5609	85.7826	-0.000185644
9395.12	0.101182	0.0114859	0.101832	-6.47631	24.803	-0.000213058	-1.18331	1474.87	18.7634	1	37	0.00525467	0.0516013	0	-0.0035905	0.305678	0.166513	6.12696	1.63844e-06	6.76211e-06	9.33347e-06	8.14213e-06	4.62972e-06	4.59623e-06	0.121465	0.0512318	0.422271	6.47547e-06	6.07119e-05	7.13329e-06	9.48194e-06	4.76777e-06	4.4792e-06	9.75741	1.10763	9.82007	6.47631	18763.4	165292	166354	-83.5237	0.0000000E+000	0.0000000E+000	0.0000000E+000	83.5237	0.0000000E+000	0.0000000E+000	0.0000000E+000	-83.5237	0.0000000E+000	0.0000000E+000	0.0000000E+000	-6.47631	0.0000000E+000	0.0000000E+000	0.0000000E+000	6.47631	8.80927	83.5237	-0.000272026
2985.95	0.111635	0.0101027	0.112091	-5.17105	31.2557	-0.000212741	-1.02974	5275.94	42.858	1	37	0.00514383	0.0458897	0	-0.00525934	0.302018	0.197031	6.33229	7.53409e-06	4.85011e-06	4.42218e-06	3.66502e-06	6.96896e-06	7.06118e-06	0.0710909	0.033968	0.484892	5.555e-06	2.81584e-05	3.58641e-06	5.7819e-06	6.62885e-06	1.02958e-05	8.88501	0.804072	8.92132	5.17105	42858	473582	475517	-84.829	0.0000000E+000	0.0000000E+000	0.0000000E+000	84.829	0.0000000E+000	0.0000000E+000	0.0000000E+000	-84.829	0.0000000E+000	0.0000000E+000	0.0000000E+000	-5.17105	0.0000000E+000	0.0000000E+000	0.0000000E+000	5.17105	11.05	84.829	-0.000387837
949.092	0.117691	0.00586323	0.117837	-2.85205	37.898	-0.000227449	-0.99913	28600.6	70.8083	1	37	0.00511207	0.0433825	0	-0.00705309	0.306264	0.14619	6.30721	7.41366e-06	4.48845e-06	6.68905e-06	5.01988e-06	4.92201e-06	6.26445e-06	0.035916	0.0938668	0.516418	5.6199e-06	3.56336e-06	3.79705e-06	1.11953e-05	4.61762e-06	4.14884e-06	8.47578	0.422253	8.48629	2.85205	70808.2	1.42132e+06	1.42308e+06	-87.148	0.0000000E+000	0.0000000E+000	0.0000000E+000	87.148	0.0000000E+000	0.0000000E+000	0.0000000E+000	-87.148	0.0000000E+000	0.0000000E+000	0.0000000E+000	-2.85205	0.0000000E+000	0.0000000E+000	0.0000000E+000	2.85205	20.0728	87.148	-0.000275098
301.641	0.120022	0.00303117	0.120061	-1.4467	44.0947	-0.000186961	-0.959115	174068	110.953	1	37	0.00530916	0.0442207	0	-0.0087201	0.254169	0.18194	6.07953	5.22403e-06	7.86695e-06	4.1647e-06	2.47621e-06	5.79125e-06	3.41407e-06	0.063738	0.0166717	0.497951	3.14192e-06	2.21154e-05	3.34043e-06	1.49099e-05	5.47743e-06	3.92673e-06	8.32647	0.210286	8.32913	1.4467	110953	4.3933e+06	4.3947e+06	-88.5533	0.0000000E+000	0.0000000E+000	0.0000000E+000	88.5533	0.0000000E+000	0.0000000E+000	0.0000000E+000	-88.5533	0.0000000E+000	0.0000000E+000	0.0000000E+000	-1.4467	0.0000000E+000	0.0000000E+000	0.0000000E+000	1.4467	39.596	88.5533	-0.000275792
95.8897	0.121121	0.00166924	0.121133	-0.789575	49.8389	-0.000192553	-0.977019	994328	188.818	1	37	0.00523317	0.0432019	0	-0.0103124	0.303729	0.153554	6.14958	5.40003e-06	6.86602e-06	5.61763e-06	4.89999e-06	8.31635e-06	5.9275e-06	0.0991995	0.0159035	0.523222	4.83189e-06	3.27495e-05	3.7781e-06	2.52877e-05	7.10525e-06	4.23907e-06	8.25462	0.113762	8.25541	0.789575	188818	1.37008e+07	1.37021e+07	-89.2104	0.0000000E+000	0.0000000E+000	0.0000000E+000	89.2104	0.0000000E+000	0.0000000E+000	0.0000000E+000	-89.2104	0.0000000E+000	0.0000000E+000	0.0000000E+000	-0.789575	0.0000000E+000	0.0000000E+000	0.0000000E+000	0.789575	72.5608	89.2104	-0.000278593
30.4779	0.121978	0.00161231	0.121989	-0.757292	55.3896	-0.00017477	-0.951559	3.23882e+06	565.775	1	37	0.00527304	0.0432256	0	-0.0117028	0.338836	0.240877	6.06144	6.23672e-06	1.26316e-05	4.32188e-06	6.04847e-06	2.50829e-06	5.83227e-06	0.163209	0.0296109	0.50725	9.03598e-06	3.77613e-05	4.65239e-06	5.61469e-05	5.25128e-06	5.74192e-06	8.19676	0.108345	8.19748	0.757292	565776	4.28034e+07	4.28071e+07	-89.2427	0.0000000E+000	0.0000000E+000	0.0000000E+000	89.2427	0.0000000E+000	0.0000000E+000	0.0000000E+000	-89.2427	0.0000000E+000	0.0000000E+000	0.0000000E+000	-0.757292	0.0000000E+000	0.0000000E+000	0.0000000E+000	0.757292	75.6543	89.2427	-0.000198145
9.68695	0.123027	0.0019633	0.123043	-0.914264	60.8672	-0.000174267	-0.935944	8.36849e+06	2130.63	1	37	0.00527696	0.0428873	0	-0.012933	0.35504	0.172524	6.17393	6.84819e-06	7.27558e-06	6.66698e-06	7.23818e-06	5.38009e-06	5.96693e-06	0.154492	0.0884366	0.498707	2.6854e-05	3.74327e-05	1.15219e-05	3.64923e-05	9.95505e-06	6.96869e-06	8.12623	0.129681	8.12726	0.914264	2.13062e+06	1.33513e+08	1.3353e+08	-89.0857	0.0000000E+000	0.0000000E+000	0.0000000E+000	89.0857	0.0000000E+000	0.0000000E+000	0.0000000E+000	-89.0857	0.0000000E+000	0.0000000E+000	0.0000000E+000	-0.914264	0.0000000E+000	0.0000000E+000	0.0000000E+000	0.914264	62.6634	89.0857	9.12623e-05
3.07821	0.124327	0.0028979	0.124361	-1.33524	69.4848	-0.000171185	-0.933592	1.78418e+07	9688.04	1	37	0.00527059	0.0423814	0	-0.0146943	0.19842	0.129081	2.42977	3.29291e-06	5.89789e-06	2.23632e-06	4.41026e-06	3.12766e-06	3.17674e-06	0.125428	0.123692	0.303602	1.42077e-05	3.36405e-05	1.14107e-05	3.38926e-05	8.14461e-06	1.00478e-05	8.03892	0.187376	8.04111	1.33524	9.68803e+06	4.15642e+08	4.15755e+08	-88.6648	0.0000000E+000	0.0000000E+000	0.0000000E+000	88.6648	0.0000000E+000	0.0000000E+000	0.0000000E+000	-88.6648	0.0000000E+000	0.0000000E+000	0.0000000E+000	-1.33524	0.0000000E+000	0.0000000E+000	0.0000000E+000	1.33524	42.9026	88.6648	1.79323e-05
0.978641	0.125917	0.0050235	0.126017	-2.28462	92.0466	-0.000173458	-1.02034	3.23735e+07	51445.1	1	37	0.00527287	0.0418425	0	-0.0237995	0.102751	0.0650737	1.37886	1.8404e-06	3.99634e-06	1.66059e-06	1.5353e-06	1.4414e-06	8.51435e-07	0.179509	0.314886	0.29687	5.19583e-05	4.01209e-05	1.4371e-05	2.54389e-05	1.00967e-05	9.0937e-06	7.92912	0.316335	7.93543	2.28462	5.14451e+07	1.2895e+09	1.29053e+09	-87.7154	0.0000000E+000	0.0000000E+000	0.0000000E+000	87.7154	0.0000000E+000	0.0000000E+000	0.0000000E+000	-87.7154	0.0000000E+000	0.0000000E+000	0.0000000E+000	-2.28462	0.0000000E+000	0.0000000E+000	0.0000000E+000	2.28462	25.0656	87.7154	-0.00521986
0.311199	0.12863	0.0112168	0.129118	-4.98371	158.994	-0.000152089	-0.748276	4.55947e+07	344095	1	37	0.00526931	0.0408101	0	-0.0358742	0.109261	0.0726938	0.755768	1.41634e-06	4.53583e-06	1.38251e-06	2.05179e-06	1.51372e-06	9.51118e-07	0.250057	0.611674	0.431055	2.70048e-05	7.72445e-05	3.51873e-05	2.22645e-05	1.83343e-05	1.54602e-05	7.71559	0.672816	7.74487	4.98371	3.44095e+08	3.94595e+09	3.96092e+09	-85.0163	0.0000000E+000	0.0000000E+000	0.0000000E+000	85.0163	0.0000000E+000	0.0000000E+000	0.0000000E+000	-85.0163	0.0000000E+000	0.0000000E+000	0.0000000E+000	-4.98371	0.0000000E+000	0.0000000E+000	0.0000000E+000	4.98371	11.4676	85.0163	0.0015279
0.0988834	0.138525	0.026017	0.140947	-10.6371	366.115	-0.000168253	-1.01069	6.18641e+07	2.10787e+06	1	37	0.00526494	0.0373541	0	-0.0954709	0.105039	0.0647811	0.449611	1.9939e-06	4.02706e-06	6.36871e-07	2.27375e-06	1.47346e-06	6.00439e-07	0.812927	0.0746015	0.473967	4.01096e-05	0.000269679	3.5018e-05	9.06909e-05	2.31497e-05	8.2345e-05	6.97296	1.30963	7.09488	10.6371	2.10787e+09	1.12231e+10	1.14194e+10	-79.3629	0.0000000E+000	0.0000000E+000	0.0000000E+000	79.3629	0.0000000E+000	0.0000000E+000	0.0000000E+000	-79.3629	0.0000000E+000	0.0000000E+000	0.0000000E+000	-10.6371	0.0000000E+000	0.0000000E+000	0.0000000E+000	10.6371	5.32439	79.3629	-0.00611835
0.0314526	0.172169	0.0374543	0.176196	-12.2731	1014.28	-0.000142092	-0.918557	1.35102e+08	6.10484e+06	1	37	0.00525337	0.0298155	0	-0.293941	0.113333	0.107977	0.295224	1.44481e-06	4.58626e-06	1.75197e-06	2.48366e-06	6.65571e-07	1.03888e-06	0.188231	0.124477	1.26809	2.39177e-05	2.67076e-05	1.28987e-05	3.4331e-05	9.17932e-06	1.09505e-05	5.54579	1.20645	5.6755	12.2731	6.10484e+09	2.80626e+10	2.8719e+10	-77.7269	0.0000000E+000	0.0000000E+000	0.0000000E+000	77.7269	0.0000000E+000	0.0000000E+000	0.0000000E+000	-77.7269	0.0000000E+000	0.0000000E+000	0.0000000E+000	-12.2731	0.0000000E+000	0.0000000E+000	0.0000000E+000	12.2731	4.59678	77.7269	-0.0791696
0.0250094	0.179831	0.0350745	0.183219	-11.0365	1258.74	-0.000150128	-0.939746	1.81436e+08	6.64914e+06	1	37	0.00524997	0.028654	0	-0.376016	0.127788	0.181501	0.267076	2.55333e-06	5.46887e-06	9.86011e-07	2.0229e-06	1.06116e-06	1.17321e-06	0.201935	0.179138	1.35574	2.40482e-05	4.14319e-05	1.09495e-05	2.70301e-05	1.09129e-05	5.42188e-06	5.357	1.04484	5.45794	11.0365	6.64914e+09	3.40908e+10	3.47332e+10	-78.9635	0.0000000E+000	0.0000000E+000	0.0000000E+000	78.9635	0.0000000E+000	0.0000000E+000	0.0000000E+000	-78.9635	0.0000000E+000	0.0000000E+000	0.0000000E+000	-11.0365	0.0000000E+000	0.0000000E+000	0.0000000E+000	11.0365	5.1271	78.9635	-0.0820749