File: Python/Experiments/IRFB/240415-Felt-0p5M_FeCl2FeCl23-1M_HCl/Data/240416-EIS-0p5M_FeCl2FeCl3-1M_HCl-20mLmin_Dampened-25mHz_10ppd_C15.mpt
EC-Lab ASCII FILE
Nb header lines : 66

Potentio Electrochemical Impedance Spectroscopy

Run on channel : 15 (SN 19485)
User :
Electrode connection : standard
Potential control : Ewe
Ewe ctrl range : min = -1.00 V, max = 1.00 V
Ewe,I filtering : <None>
Safety Limits :
	Do not start on E overload
Channel : Floating
Acquisition started on : 04/16/2024 11:45:13.974
Loaded Setting File :  NONE
Saved on :
	File : 240416-EIS-0p5M_FeCl2FeCl3-1M_HCl-20mLmin_Dampened-25mHz_10ppd_C15.mpr
	Directory : C:\Data\mathias\IRFB\
	Host : 192.168.0.1
Device : VMP-300 (SN 0826)
Address : USB
EC-Lab for windows v11.52 (software)
Internet server v11.52 (firmware)
Command interpretor v11.52 (firmware)
Electrode material :
Initial state :
Electrolyte :
Comments :
Cable : special
Electrode surface area : 0.001 cm²
Characteristic mass : 0.001 g
Equivalent Weight : 0.000 g/eq.
Density : 0.000 g/cm3
Volume (V) : 0.001 cm³
Record EIS quality indicators
Cycle Definition : Charge/Discharge alternance
Mode                Single sine
E (V)               0.0000
vs.                 Eoc
tE (h:m:s)          0:00:0.0000
record              0
dI                  0.000
unit dI             mA
dt (s)              0.000
fi                  920.000
unit fi             kHz
ff                  25.000
unit ff             mHz
Nd                  10
Points              per decade
spacing             Logarithmic
Va (mV)             5.0
pw                  0.10
Na                  3
corr                0
E range min (V)     -1.000
E range max (V)     1.000
I Range             Auto
Bandwidth           8
nc cycles           0
goto Ns'            0
nr cycles           999
inc. cycle          1

freq/Hz	Re(Z)/Ohm	-Im(Z)/Ohm	|Z|/Ohm	Phase(Z)/deg	time/s	<Ewe>/V	<I>/mA	Cs/µF	Cp/µF	cycle number	I Range	|Ewe|/V	|I|/A	Ns	(Q-Qo)/mA.h	THD Ewe/%	NSD Ewe/%	NSR Ewe/%	|Ewe h2|/V	|Ewe h3|/V	|Ewe h4|/V	|Ewe h5|/V	|Ewe h6|/V	|Ewe h7|/V	THD I/%	NSD I/%	NSR I/%	|I h2|/A	|I h3|/A	|I h4|/A	|I h5|/A	|I h6|/A	|I h7|/A	Re(Y)/Ohm-1	Im(Y)/Ohm-1	|Y|/Ohm-1	Phase(Y)/deg	Re(C)/nF	Im(C)/nF	|C|/nF	Phase(C)/deg	Re(M)	Im(M)	|M|	Phase(M)/deg	Re(Permittivity)	Im(Permittivity)	|Permittivity|	Phase(Permittivity)/deg	Re(Resistivity)/Ohm.cm	Im(Resistivity)/Ohm.cm	|Resistivity|/Ohm.cm	Phase(Resistivity)/deg	Re(Conductivity)/mS/cm	Im(Conductivity)/mS/cm	|Conductivity|/mS/cm	Phase(Conductivity)/deg	Tan(Delta)	Loss Angle(Delta)/deg	dq/mA.h
920001	-0.0945144	-0.221103	0.240457	113.145	1.97648	-0.000120619	-0.508761	-0.782414	-0.661534	1	37	0.000708629	0.00294701	0	-0.000262372	-1	-1	-1	0	0	0	0	0	0	-1	-1	-1	0	0	0	0	0	0	-1.63464	-3.82402	4.15875	-113.145	-661.534	-282.784	719.44	156.855	0.0000000E+000	0.0000000E+000	0.0000000E+000	-156.855	0.0000000E+000	0.0000000E+000	0.0000000E+000	156.855	0.0000000E+000	0.0000000E+000	0.0000000E+000	113.145	0.0000000E+000	0.0000000E+000	0.0000000E+000	-113.145	0.427467	23.1451	-0.000262372
379.393	0.121446	0.00318782	0.121488	-1.5036	42.9841	-0.000227001	-1.18684	131594	90.6059	1	37	0.00510932	0.0420561	0	-0.0101136	0.359684	0.159181	6.35886	9.1043e-06	4.45645e-06	7.41913e-06	5.76984e-06	7.54363e-06	6.48665e-06	0.0547312	0.0441987	0.527942	4.49924e-06	1.70652e-05	3.78695e-06	1.12633e-05	5.67196e-06	3.94087e-06	8.22842	0.215986	8.23126	1.5036	90606	3.45181e+06	3.453e+06	-88.4964	0.0000000E+000	0.0000000E+000	0.0000000E+000	88.4964	0.0000000E+000	0.0000000E+000	0.0000000E+000	-88.4964	0.0000000E+000	0.0000000E+000	0.0000000E+000	-1.5036	0.0000000E+000	0.0000000E+000	0.0000000E+000	1.5036	38.097	88.4964	-0.00041242
0.15652	0.139802	0.014304	0.140532	-5.84198	254.649	-0.00021134	-1.26095	7.10874e+07	736482	1	37	0.00526312	0.0374515	0	-0.0901808	0.103956	0.099726	0.543602	1.53725e-06	4.38164e-06	9.41696e-07	2.1684e-06	1.23019e-06	6.47646e-07	0.13316	0.117406	0.397395	1.77019e-05	2.38702e-05	1.17843e-05	3.17237e-05	7.01075e-06	1.08662e-05	7.07888	0.724287	7.11583	5.84198	7.36482e+08	7.19807e+09	7.23565e+09	-84.158	0.0000000E+000	0.0000000E+000	0.0000000E+000	84.158	0.0000000E+000	0.0000000E+000	0.0000000E+000	-84.158	0.0000000E+000	0.0000000E+000	0.0000000E+000	-5.84198	0.0000000E+000	0.0000000E+000	0.0000000E+000	5.84198	9.77358	84.158	-0.0212362
2985.95	0.113451	0.00967341	0.113862	-4.87355	1289.75	-0.000250768	-1.35457	5510.08	39.7701	2	37	0.00515186	0.0452464	0	-0.00642671	0.309306	0.224413	6.39949	4.60119e-06	6.74119e-06	5.21163e-06	5.0085e-06	7.87744e-06	7.04779e-06	0.0714939	0.0453493	0.482885	3.0906e-06	3.0877e-05	3.56402e-06	3.64572e-06	3.64577e-06	4.87709e-06	8.75078	0.746138	8.78254	4.87355	39770	466427	468120	-85.1265	0.0000000E+000	0.0000000E+000	0.0000000E+000	85.1265	0.0000000E+000	0.0000000E+000	0.0000000E+000	-85.1265	0.0000000E+000	0.0000000E+000	0.0000000E+000	-4.87355	0.0000000E+000	0.0000000E+000	0.0000000E+000	4.87355	11.7281	85.1265	-0.000441973
1.23128	0.12629	0.00397282	0.126353	-1.80181	1343.96	-0.000210928	-1.24905	3.25359e+07	32165.7	2	37	0.00542737	0.0429542	0	-0.0245672	0.128065	0.0444737	1.51293	2.23556e-06	4.80075e-06	1.43078e-06	3.15847e-06	1.59875e-06	1.62304e-06	0.115543	0.167142	0.271398	1.52359e-05	3.47173e-05	5.45282e-06	2.99058e-05	4.9197e-06	4.90877e-06	7.91045	0.248846	7.91436	1.80181	3.21657e+07	1.0225e+09	1.02301e+09	-88.1982	0.0000000E+000	0.0000000E+000	0.0000000E+000	88.1982	0.0000000E+000	0.0000000E+000	0.0000000E+000	-88.1982	0.0000000E+000	0.0000000E+000	0.0000000E+000	-1.80181	0.0000000E+000	0.0000000E+000	0.0000000E+000	1.80181	31.7885	88.1982	0.00120595
23493.2	0.0940521	0.00835879	0.0944228	-5.07876	2537.2	-0.00015078	-0.556069	810.467	6.35138	3	37	0.00518345	0.0548962	0	-0.00255356	0.357166	0.156602	6.27108	2.51762e-06	7.91992e-06	9.83229e-06	5.7524e-06	6.72583e-06	7.74818e-06	0.123393	0.0116834	0.408511	5.14752e-06	6.65533e-05	4.23903e-06	8.46233e-06	4.61847e-06	3.56207e-06	10.5491	0.93754	10.5907	5.07876	6351.38	71465	71746.7	-84.9212	0.0000000E+000	0.0000000E+000	0.0000000E+000	84.9212	0.0000000E+000	0.0000000E+000	0.0000000E+000	-84.9212	0.0000000E+000	0.0000000E+000	0.0000000E+000	-5.07876	0.0000000E+000	0.0000000E+000	0.0000000E+000	5.07876	11.2519	84.9212	-0.000243965
9.68695	0.123625	0.00180996	0.123639	-0.838788	2577.85	-0.000218594	-1.37757	9.07746e+06	1945.33	3	37	0.00527037	0.0426272	0	-0.0173368	0.319257	0.139538	6.18072	9.19959e-06	7.46912e-06	4.07923e-06	6.2993e-06	6.05834e-06	3.40012e-06	0.181408	0.119728	0.498183	3.11848e-05	3.89867e-05	7.99713e-06	5.34155e-05	1.10832e-05	3.69457e-06	8.08721	0.118402	8.08808	0.838788	1.94533e+06	1.32872e+08	1.32886e+08	-89.1612	0.0000000E+000	0.0000000E+000	0.0000000E+000	89.1612	0.0000000E+000	0.0000000E+000	0.0000000E+000	-89.1612	0.0000000E+000	0.0000000E+000	0.0000000E+000	-0.838788	0.0000000E+000	0.0000000E+000	0.0000000E+000	0.838788	68.3029	89.1612	-0.000218459
184902	0.0812253	-0.015797	0.0827472	11.0057	3785.5	-0.000118718	-0.509262	-54.4883	-1.98585	4	37	0.00381336	0.0460845	0	-0.00230084	-1	-1	-1	0	0	0	0	0	0	-1	-1	-1	0	0	0	0	0	0	11.8627	-2.30711	12.085	-11.0057	-1985.85	10210.9	10402.2	-101.006	0.0000000E+000	0.0000000E+000	0.0000000E+000	101.006	0.0000000E+000	0.0000000E+000	0.0000000E+000	-101.006	0.0000000E+000	0.0000000E+000	0.0000000E+000	11.0057	0.0000000E+000	0.0000000E+000	0.0000000E+000	-11.0057	5.14182	78.9943	-0.000115821
76.244	0.121731	0.00163396	0.121742	-0.769017	3826.42	-0.000211977	-1.25812	1.27753e+06	230.13	4	37	0.00540433	0.0443916	0	-0.0138614	0.341663	0.133297	6.08118	5.48306e-06	8.6113e-06	7.83652e-06	8.66312e-06	7.0735e-06	5.65033e-06	0.129266	0.054525	0.490667	3.69598e-05	3.25325e-05	5.45269e-06	2.69489e-05	7.08794e-06	5.26249e-06	8.21334	0.110245	8.21408	0.769017	230131	1.71449e+07	1.71464e+07	-89.231	0.0000000E+000	0.0000000E+000	0.0000000E+000	89.231	0.0000000E+000	0.0000000E+000	0.0000000E+000	-89.231	0.0000000E+000	0.0000000E+000	0.0000000E+000	-0.769017	0.0000000E+000	0.0000000E+000	0.0000000E+000	0.769017	74.5007	89.231	-0.000366192
0.0314526	0.150781	0.00525915	0.150872	-1.99763	4789.76	-0.000202931	-1.41	9.62164e+08	1.16912e+06	4	37	0.00541604	0.0358981	0	-0.330631	0.0968984	0.119453	0.268604	1.90696e-06	3.79551e-06	9.97935e-07	2.54677e-06	1.13268e-06	4.52628e-07	0.13604	0.20218	0.441281	1.40271e-05	2.46301e-05	8.53654e-06	3.64798e-05	4.72915e-06	3.59229e-06	6.62409	0.231044	6.62812	1.99763	1.16912e+09	3.35189e+10	3.35393e+10	-88.0024	0.0000000E+000	0.0000000E+000	0.0000000E+000	88.0024	0.0000000E+000	0.0000000E+000	0.0000000E+000	-88.0024	0.0000000E+000	0.0000000E+000	0.0000000E+000	-1.99763	0.0000000E+000	0.0000000E+000	0.0000000E+000	1.99763	28.6702	88.0024	-0.040699
600.192	0.119328	0.00430685	0.119406	-2.06705	5074.53	-0.000202713	-1.36523	61570.2	80.101	5	37	0.00501418	0.0419927	0	-0.0108845	0.365632	0.181217	6.45928	3.0676e-06	1.09567e-05	6.11533e-06	5.86932e-06	5.49011e-06	6.15217e-06	0.0495742	0.0255457	0.527051	4.69898e-06	1.43734e-05	3.6321e-06	1.23431e-05	4.29734e-06	2.87421e-06	8.36934	0.30207	8.37479	2.06705	80100.9	2.21933e+06	2.22077e+06	-87.933	0.0000000E+000	0.0000000E+000	0.0000000E+000	87.933	0.0000000E+000	0.0000000E+000	0.0000000E+000	-87.933	0.0000000E+000	0.0000000E+000	0.0000000E+000	-2.06705	0.0000000E+000	0.0000000E+000	0.0000000E+000	2.06705	27.7066	87.933	-0.000409908
0.247537	0.131611	0.0122029	0.132175	-5.2973	5217.95	-0.000211025	-1.46401	5.26887e+07	449100	5	37	0.00526964	0.0398685	0	-0.0687606	0.0950439	0.0565543	0.691268	9.8366e-07	3.84284e-06	9.72523e-07	1.89636e-06	1.04628e-06	1.22412e-06	0.133769	0.0584544	0.338397	8.11289e-06	3.56814e-05	5.31111e-06	3.18386e-05	1.54255e-05	1.22855e-05	7.5334	0.698494	7.56571	5.2973	4.49101e+08	4.84364e+09	4.86441e+09	-84.7027	0.0000000E+000	0.0000000E+000	0.0000000E+000	84.7027	0.0000000E+000	0.0000000E+000	0.0000000E+000	-84.7027	0.0000000E+000	0.0000000E+000	0.0000000E+000	-5.2973	0.0000000E+000	0.0000000E+000	0.0000000E+000	5.2973	10.7852	84.7027	-0.0148252
4721.51	0.108238	0.0112578	0.108821	-5.93801	6321.07	-0.00025226	-1.45833	2994.23	32.0454	6	37	0.00516592	0.0474715	0	-0.00607943	0.259502	0.2174	6.19035	5.36089e-06	3.90785e-06	3.22141e-06	4.69326e-06	5.42522e-06	6.38152e-06	0.0867384	0.101192	0.478638	4.24952e-06	3.82052e-05	4.23858e-06	1.17784e-05	4.31735e-06	4.97105e-06	9.14006	0.950662	9.18937	5.93801	32045.4	308098	309760	-84.062	0.0000000E+000	0.0000000E+000	0.0000000E+000	84.062	0.0000000E+000	0.0000000E+000	0.0000000E+000	-84.062	0.0000000E+000	0.0000000E+000	0.0000000E+000	-5.93801	0.0000000E+000	0.0000000E+000	0.0000000E+000	5.93801	9.61442	84.062	-0.000591148
1.94632	0.124827	0.0028354	0.124859	-1.30123	6368.32	-0.000221355	-1.47527	2.88399e+07	14872.5	6	37	0.00542763	0.0434701	0	-0.0244309	0.170555	0.0842417	1.95497	2.28299e-06	6.46912e-06	3.7335e-06	2.33761e-06	2.53559e-06	2.5012e-06	0.118593	0.0779847	0.286693	1.76326e-05	3.63957e-05	7.94175e-06	2.62582e-05	8.37e-06	6.5382e-06	8.00699	0.181876	8.00905	1.30123	1.48725e+07	6.54751e+08	6.5492e+08	-88.6988	0.0000000E+000	0.0000000E+000	0.0000000E+000	88.6988	0.0000000E+000	0.0000000E+000	0.0000000E+000	-88.6988	0.0000000E+000	0.0000000E+000	0.0000000E+000	-1.30123	0.0000000E+000	0.0000000E+000	0.0000000E+000	1.30123	44.0244	88.6988	-0.000865166
37160.4	0.0899409	0.00521075	0.0900918	-3.31574	7568.88	-0.000140266	-0.695337	821.938	2.7496	7	37	0.00520497	0.0577741	0	-0.00465867	0.300119	0.135535	6.3475	4.98042e-06	5.09117e-06	6.84564e-06	2.80187e-06	6.89396e-06	7.57168e-06	0.130277	0.0406261	0.376909	7.26583e-06	7.40663e-05	5.8278e-06	7.05403e-06	3.76853e-06	3.41176e-06	11.0812	0.641993	11.0998	3.31574	2749.61	47459.9	47539.5	-86.6843	0.0000000E+000	0.0000000E+000	0.0000000E+000	86.6843	0.0000000E+000	0.0000000E+000	0.0000000E+000	-86.6843	0.0000000E+000	0.0000000E+000	0.0000000E+000	-3.31574	0.0000000E+000	0.0000000E+000	0.0000000E+000	3.31574	17.2606	86.6843	-0.000256776
15.3186	0.122871	0.00169554	0.122882	-0.790596	7609.69	-0.000217122	-1.37802	6.12764e+06	1166.62	7	37	0.00526915	0.0428797	0	-0.0203862	0.339078	0.144705	6.16429	9.12111e-06	7.5183e-06	5.9519e-06	7.31542e-06	5.80262e-06	5.57637e-06	0.128186	0.0862414	0.507801	1.14861e-05	3.85784e-05	6.76013e-06	3.17705e-05	9.19206e-06	7.03987e-06	8.1371	0.112287	8.13787	0.790596	1.16662e+06	8.45415e+07	8.45496e+07	-89.2094	0.0000000E+000	0.0000000E+000	0.0000000E+000	89.2094	0.0000000E+000	0.0000000E+000	0.0000000E+000	-89.2094	0.0000000E+000	0.0000000E+000	0.0000000E+000	-0.790596	0.0000000E+000	0.0000000E+000	0.0000000E+000	0.790596	72.4671	89.2094	-0.000237743
0.0988834	0.143863	0.0124162	0.144397	-4.93273	7917.08	-0.000203169	-1.46831	1.29631e+08	958442	7	37	0.00526352	0.0364516	0	-0.128979	0.117239	0.108479	0.43893	1.37111e-06	4.81663e-06	7.83133e-07	2.95477e-06	1.58264e-06	8.53454e-07	0.131797	0.0866496	0.400331	7.05545e-06	3.04042e-05	5.26455e-06	3.43515e-05	6.02013e-06	4.55618e-06	6.89968	0.595482	6.92533	4.93273	9.58441e+08	1.11052e+10	1.11465e+10	-85.0673	0.0000000E+000	0.0000000E+000	0.0000000E+000	85.0673	0.0000000E+000	0.0000000E+000	0.0000000E+000	-85.0673	0.0000000E+000	0.0000000E+000	0.0000000E+000	-4.93273	0.0000000E+000	0.0000000E+000	0.0000000E+000	4.93273	11.5867	85.0673	-0.018752