File: Python/Experiments/IRFB/240415-Felt-0p5M_FeCl2FeCl23-1M_HCl/Data/240416-EIS-0p5M_FeCl2FeCl3-1M_HCl-50mLmin_Dampened-25mHz_10ppd_C15.mpt
EC-Lab ASCII FILE
Nb header lines : 66

Potentio Electrochemical Impedance Spectroscopy

Run on channel : 15 (SN 19485)
User :
Electrode connection : standard
Potential control : Ewe
Ewe ctrl range : min = -1.00 V, max = 1.00 V
Ewe,I filtering : <None>
Safety Limits :
	Do not start on E overload
Channel : Floating
Acquisition started on : 04/16/2024 15:05:11.128
Loaded Setting File :  NONE
Saved on :
	File : 240416-EIS-0p5M_FeCl2FeCl3-1M_HCl-50mLmin_Dampened-25mHz_10ppd_C15.mpr
	Directory : C:\Data\mathias\IRFB\
	Host : 192.168.0.1
Device : VMP-300 (SN 0826)
Address : USB
EC-Lab for windows v11.52 (software)
Internet server v11.52 (firmware)
Command interpretor v11.52 (firmware)
Electrode material :
Initial state :
Electrolyte :
Comments :
Cable : special
Electrode surface area : 0.001 cm²
Characteristic mass : 0.001 g
Equivalent Weight : 0.000 g/eq.
Density : 0.000 g/cm3
Volume (V) : 0.001 cm³
Record EIS quality indicators
Cycle Definition : Charge/Discharge alternance
Mode                Single sine
E (V)               0.0000
vs.                 Eoc
tE (h:m:s)          0:00:0.0000
record              0
dI                  0.000
unit dI             mA
dt (s)              0.000
fi                  920.000
unit fi             kHz
ff                  25.000
unit ff             mHz
Nd                  10
Points              per decade
spacing             Logarithmic
Va (mV)             5.0
pw                  0.10
Na                  3
corr                0
E range min (V)     -1.000
E range max (V)     1.000
I Range             Auto
Bandwidth           8
nc cycles           2
goto Ns'            0
nr cycles           0
inc. cycle          1

freq/Hz	Re(Z)/Ohm	-Im(Z)/Ohm	|Z|/Ohm	Phase(Z)/deg	time/s	<Ewe>/V	<I>/mA	Cs/µF	Cp/µF	cycle number	I Range	|Ewe|/V	|I|/A	Ns	(Q-Qo)/mA.h	THD Ewe/%	NSD Ewe/%	NSR Ewe/%	|Ewe h2|/V	|Ewe h3|/V	|Ewe h4|/V	|Ewe h5|/V	|Ewe h6|/V	|Ewe h7|/V	THD I/%	NSD I/%	NSR I/%	|I h2|/A	|I h3|/A	|I h4|/A	|I h5|/A	|I h6|/A	|I h7|/A	Re(Y)/Ohm-1	Im(Y)/Ohm-1	|Y|/Ohm-1	Phase(Y)/deg	Re(C)/nF	Im(C)/nF	|C|/nF	Phase(C)/deg	Re(M)	Im(M)	|M|	Phase(M)/deg	Re(Permittivity)	Im(Permittivity)	|Permittivity|	Phase(Permittivity)/deg	Re(Resistivity)/Ohm.cm	Im(Resistivity)/Ohm.cm	|Resistivity|/Ohm.cm	Phase(Resistivity)/deg	Re(Conductivity)/mS/cm	Im(Conductivity)/mS/cm	|Conductivity|/mS/cm	Phase(Conductivity)/deg	Tan(Delta)	Loss Angle(Delta)/deg	dq/mA.h
920001	-0.0954137	-0.220046	0.239841	113.442	1.97648	-0.000129566	-1.16628	-0.786174	-0.661754	1	37	0.000707001	0.00294779	0	-0.00060945	-1	-1	-1	0	0	0	0	0	0	-1	-1	-1	0	0	0	0	0	0	-1.65868	-3.82529	4.16942	-113.442	-661.754	-286.942	721.286	156.558	0.0000000E+000	0.0000000E+000	0.0000000E+000	-156.558	0.0000000E+000	0.0000000E+000	0.0000000E+000	156.558	0.0000000E+000	0.0000000E+000	0.0000000E+000	113.442	0.0000000E+000	0.0000000E+000	0.0000000E+000	-113.442	0.433608	23.442	-0.00060945
29552	0.0904963	0.00663279	0.0907391	-4.19191	19.0545	-0.000121122	-1.06138	811.963	4.33851	1	37	0.00519228	0.0572221	0	-0.00607149	0.387583	0.145526	6.25957	5.74454e-06	1.04537e-05	7.09182e-06	7.58346e-06	8.46012e-06	6.06786e-06	0.13162	0.0231331	0.382842	1.25215e-05	7.26138e-05	4.87177e-06	1.1441e-05	5.63823e-06	4.61288e-06	10.9911	0.805578	11.0206	4.19191	4338.51	59193.6	59352.4	-85.8081	0.0000000E+000	0.0000000E+000	0.0000000E+000	85.8081	0.0000000E+000	0.0000000E+000	0.0000000E+000	-85.8081	0.0000000E+000	0.0000000E+000	0.0000000E+000	-4.19191	0.0000000E+000	0.0000000E+000	0.0000000E+000	4.19191	13.6438	85.8081	-0.000446599
949.092	0.117574	0.006119	0.117733	-2.9792	37.89	-0.000249836	-2.01385	27405.1	74.0276	1	37	0.00511375	0.043435	0	-0.0150497	0.274292	0.100378	6.24097	4.26064e-06	5.5547e-06	4.55189e-06	6.66397e-06	5.21834e-06	5.97363e-06	0.0351551	0.10386	0.503329	6.02287e-06	6.54198e-06	4.09292e-06	9.30174e-06	5.15091e-06	2.52678e-06	8.48229	0.44145	8.49377	2.9792	74027.6	1.42241e+06	1.42434e+06	-87.0208	0.0000000E+000	0.0000000E+000	0.0000000E+000	87.0208	0.0000000E+000	0.0000000E+000	0.0000000E+000	-87.0208	0.0000000E+000	0.0000000E+000	0.0000000E+000	-2.9792	0.0000000E+000	0.0000000E+000	0.0000000E+000	2.9792	19.2146	87.0208	-0.000832008
30.4779	0.122159	0.00137317	0.122167	-0.644022	55.3806	-0.000208808	-1.8202	3.80288e+06	480.453	1	37	0.00526788	0.0431203	0	-0.0240934	0.339158	0.146188	6.10889	5.43333e-06	7.32268e-06	7.13998e-06	7.53906e-06	6.44471e-06	6.29995e-06	0.132074	0.100572	0.502947	7.68397e-06	3.96389e-05	7.06162e-06	3.59027e-05	9.44306e-06	4.36741e-06	8.185	0.0920058	8.18552	0.644022	480451	4.2742e+07	4.27447e+07	-89.356	0.0000000E+000	0.0000000E+000	0.0000000E+000	89.356	0.0000000E+000	0.0000000E+000	0.0000000E+000	-89.356	0.0000000E+000	0.0000000E+000	0.0000000E+000	-0.644022	0.0000000E+000	0.0000000E+000	0.0000000E+000	0.644022	88.9618	89.356	-0.000632558
0.978641	0.125064	0.00385846	0.125123	-1.76713	92.0355	-0.000195654	-1.79805	4.21486e+07	40080.7	1	37	0.00527089	0.0421256	0	-0.0404696	0.142635	0.084059	1.38624	2.25409e-06	5.585e-06	2.26882e-06	1.39987e-06	2.1885e-06	1.99396e-06	0.121705	0.0953305	0.269992	1.58829e-05	3.79465e-05	8.90579e-06	2.54013e-05	9.66625e-06	7.56214e-06	7.98833	0.246455	7.99213	1.76713	4.00807e+07	1.29913e+09	1.29975e+09	-88.2329	0.0000000E+000	0.0000000E+000	0.0000000E+000	88.2329	0.0000000E+000	0.0000000E+000	0.0000000E+000	-88.2329	0.0000000E+000	0.0000000E+000	0.0000000E+000	-1.76713	0.0000000E+000	0.0000000E+000	0.0000000E+000	1.76713	32.4129	88.2329	0.000232404
0.0314526	0.135767	0.00109745	0.135772	-0.46313	1014.27	-0.000200123	-1.72836	4.61083e+09	301253	1	37	0.00526461	0.0387755	0	-0.475506	0.141061	0.152021	0.286266	2.49037e-06	5.80418e-06	2.24152e-06	2.13937e-06	1.24884e-06	1.1072e-06	0.1212	0.215859	0.204139	1.60934e-05	2.69286e-05	1.14969e-05	2.99317e-05	2.51563e-06	8.33964e-06	7.36507	0.0595342	7.36531	0.46313	3.01251e+08	3.72684e+10	3.72696e+10	-89.5369	0.0000000E+000	0.0000000E+000	0.0000000E+000	89.5369	0.0000000E+000	0.0000000E+000	0.0000000E+000	-89.5369	0.0000000E+000	0.0000000E+000	0.0000000E+000	-0.46313	0.0000000E+000	0.0000000E+000	0.0000000E+000	0.46313	123.711	89.5369	-0.057283
46735.8	0.0877297	0.00305647	0.0877829	-1.99536	1274.92	-0.000101866	-0.841585	1114.17	1.35074	2	37	0.00520577	0.0593028	0	-0.566934	0.426426	0.227609	6.2678	7.02712e-06	1.1022e-05	7.36349e-06	4.86761e-06	6.91892e-06	8.85822e-06	0.124093	0.0177731	0.365767	3.27087e-06	7.25963e-05	3.63174e-06	5.94275e-06	6.34051e-06	4.94557e-06	11.3848	0.396643	11.3917	1.99536	1350.73	38770.1	38793.6	-88.0046	0.0000000E+000	0.0000000E+000	0.0000000E+000	88.0046	0.0000000E+000	0.0000000E+000	0.0000000E+000	-88.0046	0.0000000E+000	0.0000000E+000	0.0000000E+000	-1.99536	0.0000000E+000	0.0000000E+000	0.0000000E+000	1.99536	28.703	88.0046	-0.000249128
1501.44	0.116024	0.00802977	0.116302	-3.95899	1293.39	-0.000250395	-1.82158	13201.1	62.9275	2	37	0.00515781	0.0443484	0	-0.575008	0.339344	0.161617	6.30106	5.15409e-06	7.55249e-06	4.60778e-06	1.106e-05	6.16585e-06	2.89238e-06	0.0382907	0.0264943	0.503291	6.95954e-06	9.62576e-06	2.85346e-06	5.95764e-06	7.17696e-06	5.5675e-06	8.57778	0.593648	8.5983	3.95899	62927.5	909258	911433	-86.041	0.0000000E+000	0.0000000E+000	0.0000000E+000	86.041	0.0000000E+000	0.0000000E+000	0.0000000E+000	-86.041	0.0000000E+000	0.0000000E+000	0.0000000E+000	-3.95899	0.0000000E+000	0.0000000E+000	0.0000000E+000	3.95899	14.4493	86.041	-0.00070171
48.1956	0.1221	0.00144846	0.122109	-0.67966	1311.32	-0.00021468	-1.87741	2.27985e+06	320.793	2	37	0.00541934	0.0443812	0	-0.58431	0.313876	0.133377	5.96443	6.93541e-06	6.24645e-06	5.24516e-06	5.88482e-06	9.14211e-06	4.14363e-06	0.110976	0.092006	0.487921	8.20888e-06	3.67608e-05	8.3675e-06	2.8653e-05	6.32959e-06	6.02863e-06	8.18883	0.097143	8.18941	0.67966	320791	2.70418e+07	2.70437e+07	-89.3203	0.0000000E+000	0.0000000E+000	0.0000000E+000	89.3203	0.0000000E+000	0.0000000E+000	0.0000000E+000	-89.3203	0.0000000E+000	0.0000000E+000	0.0000000E+000	-0.67966	0.0000000E+000	0.0000000E+000	0.0000000E+000	0.67966	84.2967	89.3203	-0.000610032
1.54902	0.124578	0.00275139	0.124608	-1.26521	1338.31	-0.00021954	-1.92188	3.73431e+07	18206.4	2	37	0.00543137	0.0435876	0	-0.597159	0.142384	0.101225	1.67448	2.82749e-06	5.21054e-06	1.86138e-06	2.71827e-06	3.09841e-06	1.33832e-06	0.120495	0.0777461	0.275215	9.11154e-06	3.69764e-05	1.13346e-05	3.16534e-05	6.88489e-06	6.55837e-06	8.0232	0.177198	8.02516	1.26521	1.82063e+07	8.24349e+08	8.2455e+08	-88.7348	0.0000000E+000	0.0000000E+000	0.0000000E+000	88.7348	0.0000000E+000	0.0000000E+000	0.0000000E+000	-88.7348	0.0000000E+000	0.0000000E+000	0.0000000E+000	-1.26521	0.0000000E+000	0.0000000E+000	0.0000000E+000	1.26521	45.2781	88.7348	-0.00156731
0.0497507	0.135194	0.00166252	0.135204	-0.704548	1923.16	-0.000197102	-1.75081	1.92421e+09	290943	2	37	0.00542144	0.0400981	0	-0.928888	0.118002	0.100967	0.32639	1.62836e-06	4.81961e-06	1.21902e-06	3.23227e-06	9.56469e-07	8.48924e-07	0.127985	0.182475	0.214578	1.60992e-05	3.10818e-05	5.46911e-06	3.53354e-05	5.66987e-06	6.21174e-06	7.39565	0.0909465	7.39621	0.704548	2.90941e+08	2.36591e+10	2.36609e+10	-89.2955	0.0000000E+000	0.0000000E+000	0.0000000E+000	89.2955	0.0000000E+000	0.0000000E+000	0.0000000E+000	-89.2955	0.0000000E+000	0.0000000E+000	0.0000000E+000	-0.704548	0.0000000E+000	0.0000000E+000	0.0000000E+000	0.704548	81.3187	89.2955	-0.0768019
73912.6	0.0850925	-0.00157473	0.085107	1.0602	2530.79	-0.000119333	-0.863044	-1367.4	-0.468143	3	37	0.00522413	0.0613831	0	-1.1426	0.288226	0.220389	6.09255	4.71349e-06	7.44256e-06	4.60614e-06	3.2618e-06	6.25971e-06	6.16933e-06	0.104953	0.0227558	0.356229	9.90031e-06	6.30052e-05	4.32954e-06	5.39165e-06	3.45736e-06	2.78532e-06	11.7479	-0.217409	11.7499	-1.0602	-468.143	25296.6	25300.9	-91.0602	0.0000000E+000	0.0000000E+000	0.0000000E+000	91.0602	0.0000000E+000	0.0000000E+000	0.0000000E+000	-91.0602	0.0000000E+000	0.0000000E+000	0.0000000E+000	1.0602	0.0000000E+000	0.0000000E+000	0.0000000E+000	-1.0602	54.0361	88.9398	-0.000303958
2374.24	0.112601	0.00980855	0.113027	-4.97843	2548.9	-0.000235464	-1.7975	6834.25	51.4679	3	37	0.00515005	0.0455648	0	-1.1492	0.361351	0.224715	6.28855	1.00139e-05	5.75017e-06	6.23241e-06	8.77005e-06	5.80384e-06	5.2005e-06	0.055125	0.032218	0.483715	5.69181e-06	2.19821e-05	3.1438e-06	4.01081e-06	6.60733e-06	5.3731e-06	8.81407	0.767787	8.84745	4.97843	51467.9	590843	593080	-85.0216	0.0000000E+000	0.0000000E+000	0.0000000E+000	85.0216	0.0000000E+000	0.0000000E+000	0.0000000E+000	-85.0216	0.0000000E+000	0.0000000E+000	0.0000000E+000	-4.97843	0.0000000E+000	0.0000000E+000	0.0000000E+000	4.97843	11.4798	85.0216	-0.000760432
76.244	0.121226	0.00167881	0.121238	-0.793412	2567.25	-0.000206963	-1.76416	1.24341e+06	238.418	3	37	0.00524616	0.0432716	0	-1.15819	0.350672	0.193761	6.16868	9.73495e-06	4.84886e-06	8.12532e-06	6.26655e-06	3.8599e-06	6.84209e-06	0.138617	0.082991	0.503212	3.4911e-05	3.63912e-05	4.71679e-06	3.0796e-05	6.72861e-06	3.59371e-06	8.24746	0.114215	8.24825	0.793412	238417	1.72161e+07	1.72177e+07	-89.2066	0.0000000E+000	0.0000000E+000	0.0000000E+000	89.2066	0.0000000E+000	0.0000000E+000	0.0000000E+000	-89.2066	0.0000000E+000	0.0000000E+000	0.0000000E+000	-0.793412	0.0000000E+000	0.0000000E+000	0.0000000E+000	0.793412	72.2098	89.2066	-0.000566401
2.44752	0.123668	0.00208285	0.123685	-0.964901	2588.67	-0.000195142	-1.6771	3.12202e+07	8853.5	3	37	0.00527491	0.0426479	0	-1.16751	0.149877	0.0738348	2.22217	1.62097e-06	4.94381e-06	1.99271e-06	4.25323e-06	1.52625e-06	2.24875e-06	0.147978	0.0450324	0.279533	4.86039e-06	3.92102e-05	5.12419e-06	2.40653e-05	1.16431e-05	4.03838e-05	8.08389	0.136151	8.08504	0.964901	8.85346e+06	5.25671e+08	5.25745e+08	-89.0351	0.0000000E+000	0.0000000E+000	0.0000000E+000	89.0351	0.0000000E+000	0.0000000E+000	0.0000000E+000	-89.0351	0.0000000E+000	0.0000000E+000	0.0000000E+000	-0.964901	0.0000000E+000	0.0000000E+000	0.0000000E+000	0.964901	59.3744	89.0351	-0.00131961
0.0786856	0.134674	0.00244831	0.134696	-1.0415	2960.35	-0.000184693	-1.61028	8.26148e+08	272949	3	37	0.00526868	0.0391153	0	-1.33841	0.109737	0.0671369	0.402181	2.61102e-06	4.21929e-06	5.95354e-07	2.35127e-06	8.33935e-07	5.78084e-07	0.121397	0.127473	0.222922	1.68111e-05	2.57779e-05	5.17478e-06	3.31434e-05	5.82019e-06	9.66074e-06	7.4229	0.134945	7.42412	1.0415	2.72949e+08	1.50141e+10	1.50165e+10	-88.9585	0.0000000E+000	0.0000000E+000	0.0000000E+000	88.9585	0.0000000E+000	0.0000000E+000	0.0000000E+000	-88.9585	0.0000000E+000	0.0000000E+000	0.0000000E+000	-1.0415	0.0000000E+000	0.0000000E+000	0.0000000E+000	1.0415	55.0068	88.9585	-0.0197321
0.0250094	0.135022	0.000879124	0.135025	-0.373046	3775.06	-0.000200888	-1.70566	7.23879e+09	306859	3	37	0.00526834	0.0390175	0	-1.80829	0.124678	0.115099	0.265683	2.80202e-06	4.32462e-06	1.50979e-06	2.94983e-06	1.03707e-06	1.14612e-06	0.128128	0.131922	0.195914	1.79646e-05	2.50096e-05	9.04036e-06	3.30145e-05	9.35366e-06	7.55975e-06	7.40589	0.0482195	7.40605	0.373046	3.0686e+08	4.71296e+10	4.71306e+10	-89.627	0.0000000E+000	0.0000000E+000	0.0000000E+000	89.627	0.0000000E+000	0.0000000E+000	0.0000000E+000	-89.627	0.0000000E+000	0.0000000E+000	0.0000000E+000	-0.373046	0.0000000E+000	0.0000000E+000	0.0000000E+000	0.373046	153.587	89.627	-0.158433