File: Python/Experiments/IRFB/240415-Felt-0p5M_FeCl2FeCl23-1M_HCl/Data/240417-EIS-0p5M_FeCl2FeCl3-1M_HCl-10mLmin_Dampened-10mHz_10ppd_C15.mpt
EC-Lab ASCII FILE
Nb header lines : 66

Potentio Electrochemical Impedance Spectroscopy

Run on channel : 15 (SN 19485)
User :
Electrode connection : standard
Potential control : Ewe
Ewe ctrl range : min = -1.00 V, max = 1.00 V
Ewe,I filtering : <None>
Safety Limits :
	Do not start on E overload
Channel : Floating
Acquisition started on : 04/17/2024 10:15:20.290
Loaded Setting File :  NONE
Saved on :
	File : 240417-EIS-0p5M_FeCl2FeCl3-1M_HCl-10mLmin_Dampened-10mHz_10ppd_C15.mpr
	Directory : C:\Data\mathias\IRFB\
	Host : 192.168.0.1
Device : VMP-300 (SN 0826)
Address : USB
EC-Lab for windows v11.52 (software)
Internet server v11.52 (firmware)
Command interpretor v11.52 (firmware)
Electrode material :
Initial state :
Electrolyte :
Comments :
Cable : special
Electrode surface area : 0.001 cm²
Characteristic mass : 0.001 g
Equivalent Weight : 0.000 g/eq.
Density : 0.000 g/cm3
Volume (V) : 0.001 cm³
Record EIS quality indicators
Cycle Definition : Charge/Discharge alternance
Mode                Single sine
E (V)               0.0000
vs.                 Eoc
tE (h:m:s)          0:00:0.0000
record              0
dI                  0.000
unit dI             mA
dt (s)              0.000
fi                  920.000
unit fi             kHz
ff                  10.000
unit ff             mHz
Nd                  10
Points              per decade
spacing             Logarithmic
Va (mV)             5.0
pw                  0.10
Na                  3
corr                0
E range min (V)     -1.000
E range max (V)     1.000
I Range             Auto
Bandwidth           8
nc cycles           0
goto Ns'            0
nr cycles           0
inc. cycle          1

freq/Hz	Re(Z)/Ohm	-Im(Z)/Ohm	|Z|/Ohm	Phase(Z)/deg	time/s	<Ewe>/V	<I>/mA	Cs/µF	Cp/µF	cycle number	I Range	|Ewe|/V	|I|/A	Ns	(Q-Qo)/mA.h	THD Ewe/%	NSD Ewe/%	NSR Ewe/%	|Ewe h2|/V	|Ewe h3|/V	|Ewe h4|/V	|Ewe h5|/V	|Ewe h6|/V	|Ewe h7|/V	THD I/%	NSD I/%	NSR I/%	|I h2|/A	|I h3|/A	|I h4|/A	|I h5|/A	|I h6|/A	|I h7|/A	Re(Y)/Ohm-1	Im(Y)/Ohm-1	|Y|/Ohm-1	Phase(Y)/deg	Re(C)/nF	Im(C)/nF	|C|/nF	Phase(C)/deg	Re(M)	Im(M)	|M|	Phase(M)/deg	Re(Permittivity)	Im(Permittivity)	|Permittivity|	Phase(Permittivity)/deg	Re(Resistivity)/Ohm.cm	Im(Resistivity)/Ohm.cm	|Resistivity|/Ohm.cm	Phase(Resistivity)/deg	Re(Conductivity)/mS/cm	Im(Conductivity)/mS/cm	|Conductivity|/mS/cm	Phase(Conductivity)/deg	Tan(Delta)	Loss Angle(Delta)/deg	dq/mA.h
920001	-0.0949472	-0.223118	0.24248	113.052	1.97648	-0.000133984	-1.04374	-0.775348	-0.656469	1	37	0.000713896	0.00294414	0	-0.000563603	-1	-1	-1	0	0	0	0	0	0	-1	-1	-1	0	0	0	0	0	0	-1.61484	-3.79474	4.12405	-113.052	-656.469	-279.358	713.437	156.948	0.0000000E+000	0.0000000E+000	0.0000000E+000	-156.948	0.0000000E+000	0.0000000E+000	0.0000000E+000	156.948	0.0000000E+000	0.0000000E+000	0.0000000E+000	113.052	0.0000000E+000	0.0000000E+000	0.0000000E+000	-113.052	0.425546	23.052	-0.000563603
232547	0.0768251	-0.0222433	0.0799804	16.1474	8.86149	-0.000144721	-1.03624	-30.7687	-2.37981	1	37	0.0025925	0.0324142	0	-0.00263367	-1	-1	-1	0	0	0	0	0	0	-1	-1	-1	0	0	0	0	0	0	12.0098	-3.47723	12.5031	-16.1474	-2379.81	8219.5	8557.08	-106.147	0.0000000E+000	0.0000000E+000	0.0000000E+000	106.147	0.0000000E+000	0.0000000E+000	0.0000000E+000	-106.147	0.0000000E+000	0.0000000E+000	0.0000000E+000	16.1474	0.0000000E+000	0.0000000E+000	0.0000000E+000	-16.1474	3.45385	73.8526	-0.000356008
58779.3	0.0852271	0.000283284	0.0852276	-0.190443	15.6125	-0.000146679	-1.06641	9558.15	0.105598	1	37	0.00521809	0.0612254	0	-0.00457674	0.332288	0.133703	6.14073	5.43892e-06	9.03415e-06	6.66707e-06	6.99806e-06	4.06336e-06	5.9218e-06	0.112198	0.0191057	0.353081	7.70541e-06	6.76934e-05	3.21922e-06	1.66128e-06	4.92674e-06	5.42069e-06	11.7332	0.0389997	11.7333	0.190443	105.599	31769.7	31769.9	-89.8096	0.0000000E+000	0.0000000E+000	0.0000000E+000	89.8096	0.0000000E+000	0.0000000E+000	0.0000000E+000	-89.8096	0.0000000E+000	0.0000000E+000	0.0000000E+000	-0.190443	0.0000000E+000	0.0000000E+000	0.0000000E+000	0.190443	300.854	89.8096	-0.000308218
14854.9	0.0941059	0.0105112	0.0946911	-6.37325	22.5005	-0.000159951	-1.13371	1019.29	12.5598	1	37	0.00517793	0.0546823	0	-0.00629834	0.32485	0.161654	6.20045	4.84385e-06	6.86823e-06	7.67639e-06	4.33183e-06	6.05758e-06	8.8433e-06	0.118446	0.0235811	0.397192	5.9355e-06	6.32192e-05	5.53993e-06	8.15564e-06	4.58601e-06	4.22203e-06	10.4954	1.17229	10.5607	6.37325	12559.8	112447	113147	-83.6267	0.0000000E+000	0.0000000E+000	0.0000000E+000	83.6267	0.0000000E+000	0.0000000E+000	0.0000000E+000	-83.6267	0.0000000E+000	0.0000000E+000	0.0000000E+000	-6.37325	0.0000000E+000	0.0000000E+000	0.0000000E+000	6.37325	8.95293	83.6267	-0.000394084
3756.2	0.108314	0.013568	0.10916	-7.13998	29.9217	-0.000276418	-1.86718	3122.88	48.2454	1	37	0.00516961	0.0473579	0	-0.00966847	0.336054	0.171424	6.30473	6.78766e-06	6.99108e-06	6.58599e-06	8.4432e-06	4.6756e-06	5.25695e-06	0.0786322	0.0282395	0.458178	3.89571e-06	3.53683e-05	1.98353e-06	6.19259e-06	4.84597e-06	4.25545e-06	9.08979	1.13864	9.16083	7.13998	48245.4	385146	388156	-82.86	0.0000000E+000	0.0000000E+000	0.0000000E+000	82.86	0.0000000E+000	0.0000000E+000	0.0000000E+000	-82.86	0.0000000E+000	0.0000000E+000	0.0000000E+000	-7.13998	0.0000000E+000	0.0000000E+000	0.0000000E+000	7.13998	7.98306	82.86	-0.000655827
949.092	0.119977	0.00893419	0.120309	-4.25872	37.891	-0.00028229	-1.83472	18769.7	103.507	1	37	0.00504954	0.0419714	0	-0.0136788	0.292803	0.185761	6.4933	5.91638e-06	9.6851e-06	4.1038e-06	4.91245e-06	3.17793e-06	5.3245e-06	0.0451193	0.0878663	0.5249	6.32009e-06	8.14975e-06	5.55304e-06	1.23782e-05	5.12796e-06	5.13587e-06	8.28897	0.617246	8.31192	4.25872	103507	1.38999e+06	1.39384e+06	-85.7413	0.0000000E+000	0.0000000E+000	0.0000000E+000	85.7413	0.0000000E+000	0.0000000E+000	0.0000000E+000	-85.7413	0.0000000E+000	0.0000000E+000	0.0000000E+000	-4.25872	0.0000000E+000	0.0000000E+000	0.0000000E+000	4.25872	13.429	85.7413	-0.00075163
239.924	0.124729	0.00401043	0.124793	-1.84161	45.1948	-0.000239267	-1.75644	165408	170.826	1	37	0.00549394	0.0440243	0	-0.0172411	0.312236	0.155454	6.02511	4.46559e-06	7.28823e-06	7.36574e-06	2.2802e-06	9.63377e-06	7.02778e-06	0.0736807	0.0188336	0.494396	4.67623e-06	2.65666e-05	3.6758e-06	1.53148e-05	6.36795e-06	3.96913e-06	8.00911	0.257518	8.01325	1.84161	170826	5.3129e+06	5.31564e+06	-88.1584	0.0000000E+000	0.0000000E+000	0.0000000E+000	88.1584	0.0000000E+000	0.0000000E+000	0.0000000E+000	-88.1584	0.0000000E+000	0.0000000E+000	0.0000000E+000	-1.84161	0.0000000E+000	0.0000000E+000	0.0000000E+000	1.84161	31.1011	88.1584	-0.000528778
60.6403	0.12605	0.00184318	0.126063	-0.837758	52.0307	-0.000231997	-1.70226	1.42393e+06	304.404	1	37	0.00510327	0.0404819	0	-0.0205664	0.29295	0.164036	6.25825	4.96836e-06	7.64494e-06	3.67911e-06	4.77352e-06	7.08482e-06	6.26376e-06	0.108336	0.0307465	0.54108	4.44649e-06	3.18044e-05	6.89702e-06	2.78451e-05	3.19057e-06	6.12953e-06	7.93169	0.115982	7.93254	0.837758	304405	2.08173e+07	2.08195e+07	-89.1622	0.0000000E+000	0.0000000E+000	0.0000000E+000	89.1622	0.0000000E+000	0.0000000E+000	0.0000000E+000	-89.1622	0.0000000E+000	0.0000000E+000	0.0000000E+000	-0.837758	0.0000000E+000	0.0000000E+000	0.0000000E+000	0.837758	68.3869	89.1622	-0.00058933
15.3287	0.127067	0.00140648	0.127075	-0.634169	58.7234	-0.000224429	-1.59836	7.38213e+06	904.335	1	37	0.00511876	0.0402814	0	-0.0235339	0.357648	0.158537	6.31535	3.08398e-06	1.10225e-05	5.2572e-06	6.87875e-06	8.24236e-06	6.14607e-06	0.128659	0.0460052	0.525254	7.48483e-06	3.87973e-05	6.40355e-06	3.03836e-05	9.10645e-06	5.07122e-06	7.86889	0.0870991	7.86937	0.634169	904337	8.17013e+07	8.17063e+07	-89.3658	0.0000000E+000	0.0000000E+000	0.0000000E+000	89.3658	0.0000000E+000	0.0000000E+000	0.0000000E+000	-89.3658	0.0000000E+000	0.0000000E+000	0.0000000E+000	-0.634169	0.0000000E+000	0.0000000E+000	0.0000000E+000	0.634169	90.3441	89.3658	-0.000592014
3.87525	0.128053	0.00182102	0.128066	-0.814738	67.109	-0.00023306	-1.72649	2.25531e+07	4560.02	1	37	0.00511242	0.0399202	0	-0.0277531	0.236793	0.113144	3.15611	5.78677e-06	3.84621e-06	5.21728e-06	2.36665e-06	6.10518e-06	3.7951e-06	0.1207	0.0615191	0.344938	1.26313e-05	2.64419e-05	2.39764e-05	2.63022e-05	6.77902e-06	3.61497e-06	7.80768	0.111032	7.80847	0.814738	4.56001e+06	3.20658e+08	3.20691e+08	-89.1853	0.0000000E+000	0.0000000E+000	0.0000000E+000	89.1853	0.0000000E+000	0.0000000E+000	0.0000000E+000	-89.1853	0.0000000E+000	0.0000000E+000	0.0000000E+000	-0.814738	0.0000000E+000	0.0000000E+000	0.0000000E+000	0.814738	70.3194	89.1853	-0.001607
0.979744	0.129215	0.00357243	0.129264	-1.58367	92.017	-0.000235007	-1.71888	4.5472e+07	34730.9	1	37	0.00511519	0.0395717	0	-0.0410394	0.124383	0.0745379	1.42411	2.49947e-06	4.15152e-06	2.24391e-06	2.7914e-06	8.25384e-07	8.78644e-07	0.176562	0.170284	0.28452	5.17467e-05	3.42068e-05	1.243e-05	2.35668e-05	8.82614e-06	7.69378e-06	7.73315	0.2138	7.73611	1.58367	3.47308e+07	1.25622e+09	1.2567e+09	-88.4163	0.0000000E+000	0.0000000E+000	0.0000000E+000	88.4163	0.0000000E+000	0.0000000E+000	0.0000000E+000	-88.4163	0.0000000E+000	0.0000000E+000	0.0000000E+000	-1.58367	0.0000000E+000	0.0000000E+000	0.0000000E+000	1.58367	36.17	88.4163	-0.00626431
0.247537	0.131831	0.010082	0.132216	-4.37326	183.906	-0.000225651	-1.65918	6.37729e+07	370816	1	37	0.0051132	0.0386731	0	-0.0748031	0.110337	0.0835474	0.708899	1.72792e-06	3.70378e-06	1.69847e-06	2.17824e-06	1.72865e-06	1.35552e-06	0.270969	0.181543	0.402679	8.4607e-05	3.229e-05	3.16495e-05	3.04982e-05	1.63508e-05	8.60268e-06	7.54137	0.576736	7.56339	4.37326	3.70816e+08	4.84876e+09	4.86292e+09	-85.6267	0.0000000E+000	0.0000000E+000	0.0000000E+000	85.6267	0.0000000E+000	0.0000000E+000	0.0000000E+000	-85.6267	0.0000000E+000	0.0000000E+000	0.0000000E+000	-4.37326	0.0000000E+000	0.0000000E+000	0.0000000E+000	4.37326	13.0759	85.6267	-0.00800462
0.062544	0.150668	0.02001	0.151991	-7.56508	541.792	-0.00022347	-1.6252	1.27171e+08	2.20416e+06	1	37	0.00510579	0.0335927	0	-0.224331	0.105122	0.120759	0.384405	2.41048e-06	3.5156e-06	1.05929e-06	1.90167e-06	1.105e-06	5.13026e-07	0.159595	0.123161	0.646552	2.33039e-05	2.41177e-05	1.4409e-05	3.4189e-05	7.63062e-06	8.15872e-06	6.52206	0.866183	6.57933	7.56508	2.20416e+09	1.65966e+10	1.67423e+10	-82.4349	0.0000000E+000	0.0000000E+000	0.0000000E+000	82.4349	0.0000000E+000	0.0000000E+000	0.0000000E+000	-82.4349	0.0000000E+000	0.0000000E+000	0.0000000E+000	-7.56508	0.0000000E+000	0.0000000E+000	0.0000000E+000	7.56508	7.52966	82.4349	-0.0305527
0.0158201	0.163828	0.00802292	0.164024	-2.80363	1951.86	-0.000234559	-1.77137	1.25394e+09	3.00004e+06	1	37	0.00510538	0.0311258	0	-0.93385	0.124624	0.150964	0.240362	2.46679e-06	4.00444e-06	1.09337e-06	2.57837e-06	1.59631e-06	1.06099e-06	0.166993	0.262498	0.75914	1.55996e-05	2.95124e-05	1.1583e-05	3.20318e-05	6.32981e-06	8.10175e-06	6.08937	0.298206	6.09666	2.80363	3.00004e+09	6.12608e+10	6.13342e+10	-87.1964	0.0000000E+000	0.0000000E+000	0.0000000E+000	87.1964	0.0000000E+000	0.0000000E+000	0.0000000E+000	-87.1964	0.0000000E+000	0.0000000E+000	0.0000000E+000	-2.80363	0.0000000E+000	0.0000000E+000	0.0000000E+000	2.80363	20.42	87.1964	-0.16014
0.0100037	0.164934	0.00516236	0.165015	-1.79274	3048.2	-0.000229576	-1.60811	3.08183e+09	3.01619e+06	1	37	0.0051028	0.0309232	0	-1.29743	0.149728	0.28274	0.224523	3.41815e-06	5.07735e-06	1.25623e-06	2.72213e-06	1.16579e-06	1.34405e-06	0.181497	0.191118	0.75591	1.85816e-05	4.00439e-05	7.02561e-06	2.89597e-05	5.27193e-06	8.74361e-06	6.05708	0.189584	6.06005	1.79274	3.0162e+09	9.63654e+10	9.64126e+10	-88.2073	0.0000000E+000	0.0000000E+000	0.0000000E+000	88.2073	0.0000000E+000	0.0000000E+000	0.0000000E+000	-88.2073	0.0000000E+000	0.0000000E+000	0.0000000E+000	-1.79274	0.0000000E+000	0.0000000E+000	0.0000000E+000	1.79274	31.9494	88.2073	-0.195131