File: Python/Experiments/IRFB/240415-Felt-0p5M_FeCl2FeCl23-1M_HCl/Data/240417-EIS-0p5M_FeCl2FeCl3-1M_HCl-100mLmin_Dampened-25mHz_10ppd_C15.mpt
EC-Lab ASCII FILE
Nb header lines : 66

Potentio Electrochemical Impedance Spectroscopy

Run on channel : 15 (SN 19485)
User :
Electrode connection : standard
Potential control : Ewe
Ewe ctrl range : min = -1.00 V, max = 1.00 V
Ewe,I filtering : <None>
Safety Limits :
	Do not start on E overload
Channel : Floating
Acquisition started on : 04/17/2024 11:38:39.798
Loaded Setting File :  NONE
Saved on :
	File : 240417-EIS-0p5M_FeCl2FeCl3-1M_HCl-100mLmin_Dampened-25mHz_10ppd_C15.mpr
	Directory : C:\Data\mathias\IRFB\
	Host : 192.168.0.1
Device : VMP-300 (SN 0826)
Address : USB
EC-Lab for windows v11.52 (software)
Internet server v11.52 (firmware)
Command interpretor v11.52 (firmware)
Electrode material :
Initial state :
Electrolyte :
Comments :
Cable : special
Electrode surface area : 0.001 cm²
Characteristic mass : 0.001 g
Equivalent Weight : 0.000 g/eq.
Density : 0.000 g/cm3
Volume (V) : 0.001 cm³
Record EIS quality indicators
Cycle Definition : Charge/Discharge alternance
Mode                Single sine
E (V)               0.0000
vs.                 Eoc
tE (h:m:s)          0:00:0.0000
record              0
dI                  0.000
unit dI             mA
dt (s)              0.000
fi                  920.000
unit fi             kHz
ff                  25.000
unit ff             mHz
Nd                  10
Points              per decade
spacing             Logarithmic
Va (mV)             5.0
pw                  0.10
Na                  3
corr                0
E range min (V)     -1.000
E range max (V)     1.000
I Range             Auto
Bandwidth           8
nc cycles           0
goto Ns'            0
nr cycles           0
inc. cycle          1

freq/Hz	Re(Z)/Ohm	-Im(Z)/Ohm	|Z|/Ohm	Phase(Z)/deg	time/s	<Ewe>/V	<I>/mA	Cs/µF	Cp/µF	cycle number	I Range	|Ewe|/V	|I|/A	Ns	(Q-Qo)/mA.h	THD Ewe/%	NSD Ewe/%	NSR Ewe/%	|Ewe h2|/V	|Ewe h3|/V	|Ewe h4|/V	|Ewe h5|/V	|Ewe h6|/V	|Ewe h7|/V	THD I/%	NSD I/%	NSR I/%	|I h2|/A	|I h3|/A	|I h4|/A	|I h5|/A	|I h6|/A	|I h7|/A	Re(Y)/Ohm-1	Im(Y)/Ohm-1	|Y|/Ohm-1	Phase(Y)/deg	Re(C)/nF	Im(C)/nF	|C|/nF	Phase(C)/deg	Re(M)	Im(M)	|M|	Phase(M)/deg	Re(Permittivity)	Im(Permittivity)	|Permittivity|	Phase(Permittivity)/deg	Re(Resistivity)/Ohm.cm	Im(Resistivity)/Ohm.cm	|Resistivity|/Ohm.cm	Phase(Resistivity)/deg	Re(Conductivity)/mS/cm	Im(Conductivity)/mS/cm	|Conductivity|/mS/cm	Phase(Conductivity)/deg	Tan(Delta)	Loss Angle(Delta)/deg	dq/mA.h
920001	-0.0952955	-0.222722	0.242252	113.165	1.97648	-0.000135792	-1.24379	-0.776728	-0.656536	1	37	0.000714159	0.002948	0	-0.000640867	-1	-1	-1	0	0	0	0	0	0	-1	-1	-1	0	0	0	0	0	0	-1.62381	-3.79513	4.12792	-113.165	-656.536	-280.91	714.108	156.835	0.0000000E+000	0.0000000E+000	0.0000000E+000	-156.835	0.0000000E+000	0.0000000E+000	0.0000000E+000	156.835	0.0000000E+000	0.0000000E+000	0.0000000E+000	113.165	0.0000000E+000	0.0000000E+000	0.0000000E+000	-113.165	0.427868	23.1645	-0.000640867
292440	0.0727548	-0.0289668	0.0783092	21.7096	7.71048	-0.000132456	-1.14843	-18.7881	-2.57074	1	37	0.00176103	0.0224882	0	-0.00251215	-1	-1	-1	0	0	0	0	0	0	-1	-1	-1	0	0	0	0	0	0	11.8641	-4.72362	12.7699	-21.7096	-2570.74	6456.83	6949.77	-111.71	0.0000000E+000	0.0000000E+000	0.0000000E+000	111.71	0.0000000E+000	0.0000000E+000	0.0000000E+000	-111.71	0.0000000E+000	0.0000000E+000	0.0000000E+000	21.7096	0.0000000E+000	0.0000000E+000	0.0000000E+000	-21.7096	2.51166	68.2904	-0.00037034
92961.3	0.0837507	-0.00490709	0.0838944	3.35322	13.3125	-0.000124981	-1.18418	-348.894	-1.19365	1	37	0.0052357	0.0624083	0	-0.0044516	0.332153	0.206946	6.16425	9.01962e-06	5.58848e-06	7.87974e-06	5.96979e-06	4.53511e-06	6.51053e-06	0.097558	0.0122688	0.338439	1.04668e-05	5.9131e-05	4.49812e-06	5.82761e-06	3.45696e-06	4.02187e-06	11.8993	-0.697202	11.9198	-3.35322	-1193.65	20372.3	20407.3	-93.3532	0.0000000E+000	0.0000000E+000	0.0000000E+000	93.3532	0.0000000E+000	0.0000000E+000	0.0000000E+000	-93.3532	0.0000000E+000	0.0000000E+000	0.0000000E+000	3.35322	0.0000000E+000	0.0000000E+000	0.0000000E+000	-3.35322	17.0673	86.6468	-0.000347134
29552	0.0893391	0.00647795	0.0895736	-4.14724	19.0545	-0.000131412	-1.06202	831.372	4.3482	1	37	0.00519462	0.0579927	0	-0.00622461	0.309599	0.175553	6.23006	6.98589e-06	5.55198e-06	5.48096e-06	6.97624e-06	4.81598e-06	7.28502e-06	0.133646	0.0184028	0.370398	1.22149e-05	7.52575e-05	3.26851e-06	9.12457e-06	4.40451e-06	7.55461e-06	11.1348	0.807378	11.164	4.14724	4348.2	59967.2	60124.6	-85.8528	0.0000000E+000	0.0000000E+000	0.0000000E+000	85.8528	0.0000000E+000	0.0000000E+000	0.0000000E+000	-85.8528	0.0000000E+000	0.0000000E+000	0.0000000E+000	-4.14724	0.0000000E+000	0.0000000E+000	0.0000000E+000	4.14724	13.7913	85.8528	-0.000252402
9395.12	0.0991074	0.0127708	0.0999269	-7.34256	24.796	-0.000239938	-1.9645	1326.48	21.6656	1	37	0.00525975	0.052636	0	-0.00832884	0.302652	0.137128	6.20689	5.28918e-06	6.99844e-06	4.4477e-06	7.4308e-06	8.7273e-06	2.80082e-06	0.127011	0.0484685	0.413124	1.02943e-05	6.4499e-05	3.73473e-06	1.10453e-05	4.32045e-06	3.1368e-06	9.92526	1.27895	10.0073	7.34256	21665.6	168136	169526	-82.6574	0.0000000E+000	0.0000000E+000	0.0000000E+000	82.6574	0.0000000E+000	0.0000000E+000	0.0000000E+000	-82.6574	0.0000000E+000	0.0000000E+000	0.0000000E+000	-7.34256	0.0000000E+000	0.0000000E+000	0.0000000E+000	7.34256	7.76048	82.6574	-0.00056595
2985.95	0.111954	0.0137833	0.1128	-7.01868	31.2467	-0.000234812	-1.92301	3867.07	57.7398	1	37	0.00518136	0.0459342	0	-0.0117629	0.291229	0.131311	6.18501	2.79831e-06	5.71e-06	5.56734e-06	5.28934e-06	7.78341e-06	5.82493e-06	0.0679532	0.0389164	0.47724	5.85766e-06	2.83561e-05	6.37611e-06	6.68339e-06	6.293e-06	1.9596e-06	8.79883	1.08327	8.86526	7.01868	57739.8	468988	472529	-82.9813	0.0000000E+000	0.0000000E+000	0.0000000E+000	82.9813	0.0000000E+000	0.0000000E+000	0.0000000E+000	-82.9813	0.0000000E+000	0.0000000E+000	0.0000000E+000	-7.01868	0.0000000E+000	0.0000000E+000	0.0000000E+000	7.01868	8.12245	82.9813	-0.000717445
949.092	0.122306	0.00948908	0.122674	-4.43638	37.8899	-0.000246518	-2.02606	17672.1	105.738	1	37	0.00512943	0.0418136	0	-0.0153807	0.289546	0.228381	6.38253	5.9749e-06	4.71943e-06	6.72739e-06	6.16703e-06	5.05782e-06	2.38256e-06	0.0408954	0.116281	0.52538	8.86168e-06	4.18908e-06	5.20279e-06	1.04143e-05	3.59386e-06	6.01557e-06	8.12727	0.63055	8.1517	4.43638	105738	1.36288e+06	1.36697e+06	-85.5636	0.0000000E+000	0.0000000E+000	0.0000000E+000	85.5636	0.0000000E+000	0.0000000E+000	0.0000000E+000	-85.5636	0.0000000E+000	0.0000000E+000	0.0000000E+000	-4.43638	0.0000000E+000	0.0000000E+000	0.0000000E+000	4.43638	12.8892	85.5636	-0.000774561
301.641	0.126794	0.00474425	0.126883	-2.14284	44.0857	-0.000208062	-1.99446	111215	155.487	1	37	0.00522955	0.0412157	0	-0.0187894	0.314408	0.175851	6.10459	6.04384e-06	8.10409e-06	6.03704e-06	4.61331e-06	6.6387e-06	5.98467e-06	0.0702557	0.053219	0.53567	6.29872e-06	2.27962e-05	1.91266e-06	1.33604e-05	5.0276e-06	6.24604e-06	7.87579	0.294689	7.88131	2.14284	155487	4.1555e+06	4.15841e+06	-87.8572	0.0000000E+000	0.0000000E+000	0.0000000E+000	87.8572	0.0000000E+000	0.0000000E+000	0.0000000E+000	-87.8572	0.0000000E+000	0.0000000E+000	0.0000000E+000	-2.14284	0.0000000E+000	0.0000000E+000	0.0000000E+000	2.14284	26.7258	87.8572	-0.000643798
95.8897	0.12842	0.00230301	0.128441	-1.0274	49.8289	-0.00021578	-1.92858	720695	231.705	1	37	0.00508378	0.0395806	0	-0.0217637	0.310481	0.111062	6.31019	4.07092e-06	7.42762e-06	4.17668e-06	7.21752e-06	5.17915e-06	7.81154e-06	0.109581	0.0708082	0.560579	3.25047e-06	3.06685e-05	5.18388e-06	2.82339e-05	7.45739e-06	4.90157e-06	7.78442	0.139601	7.78567	1.0274	231706	1.29203e+07	1.29224e+07	-88.9726	0.0000000E+000	0.0000000E+000	0.0000000E+000	88.9726	0.0000000E+000	0.0000000E+000	0.0000000E+000	-88.9726	0.0000000E+000	0.0000000E+000	0.0000000E+000	-1.0274	0.0000000E+000	0.0000000E+000	0.0000000E+000	1.0274	55.762	88.9726	-0.000554385
30.4779	0.129319	0.00127727	0.129325	-0.565888	55.3806	-0.000216693	-1.93749	4.08838e+06	398.798	1	37	0.00511267	0.0395334	0	-0.0245808	0.364915	0.199342	6.34425	5.06915e-06	7.25618e-06	4.27665e-06	8.14903e-06	5.80673e-06	1.00651e-05	0.161551	0.0828421	0.551744	1.01736e-05	3.41973e-05	4.24962e-06	5.18338e-05	3.54614e-06	5.71189e-06	7.73206	0.076369	7.73244	0.565888	398798	4.03767e+07	4.03787e+07	-89.4341	0.0000000E+000	0.0000000E+000	0.0000000E+000	89.4341	0.0000000E+000	0.0000000E+000	0.0000000E+000	-89.4341	0.0000000E+000	0.0000000E+000	0.0000000E+000	-0.565888	0.0000000E+000	0.0000000E+000	0.0000000E+000	0.565888	101.246	89.4341	-0.000498185
9.68695	0.130108	0.00111787	0.130113	-0.492268	60.8572	-0.000211697	-1.80805	1.46974e+07	1084.89	1	37	0.00511308	0.0392974	0	-0.0272521	0.292461	0.138074	6.30473	5.59388e-06	3.49874e-06	8.32115e-06	6.17564e-06	3.80957e-06	6.02452e-06	0.172319	0.101664	0.544073	2.6371e-05	2.99858e-05	6.1928e-06	4.43916e-05	1.12247e-05	6.14223e-06	7.68537	0.066032	7.68566	0.492268	1.08489e+06	1.26269e+08	1.26274e+08	-89.5077	0.0000000E+000	0.0000000E+000	0.0000000E+000	89.5077	0.0000000E+000	0.0000000E+000	0.0000000E+000	-89.5077	0.0000000E+000	0.0000000E+000	0.0000000E+000	-0.492268	0.0000000E+000	0.0000000E+000	0.0000000E+000	0.492268	116.389	89.5077	-0.000254173
3.07821	0.130836	0.0014593	0.130844	-0.63903	69.4747	-0.000219393	-1.90322	3.54305e+07	4407.14	1	37	0.00511329	0.0390793	0	-0.0312382	0.171979	0.0907693	2.55088	3.85854e-06	4.87076e-06	3.56954e-06	2.38377e-06	2.24591e-06	3.35477e-06	0.105833	0.0588123	0.32445	5.55283e-06	2.70567e-05	1.12674e-05	2.27506e-05	1.3772e-05	6.57075e-06	7.64221	0.0852385	7.64269	0.63903	4.40714e+06	3.9513e+08	3.95155e+08	-89.361	0.0000000E+000	0.0000000E+000	0.0000000E+000	89.361	0.0000000E+000	0.0000000E+000	0.0000000E+000	-89.361	0.0000000E+000	0.0000000E+000	0.0000000E+000	-0.63903	0.0000000E+000	0.0000000E+000	0.0000000E+000	0.63903	89.6568	89.361	-0.000904391
0.978641	0.13236	0.00302132	0.132394	-1.30764	92.0358	-0.000208118	-1.80274	5.3827e+07	28032.1	1	37	0.00511418	0.0386284	0	-0.0451314	0.134914	0.0647067	1.42285	1.3e-06	5.20725e-06	1.36931e-06	2.47471e-06	1.88463e-06	2.14609e-06	0.128854	0.0717807	0.287125	1.01731e-05	3.28424e-05	9.12429e-06	3.01731e-05	7.68699e-06	1.02455e-05	7.55123	0.172369	7.5532	1.30764	2.80321e+07	1.22805e+09	1.22837e+09	-88.6924	0.0000000E+000	0.0000000E+000	0.0000000E+000	88.6924	0.0000000E+000	0.0000000E+000	0.0000000E+000	-88.6924	0.0000000E+000	0.0000000E+000	0.0000000E+000	-1.30764	0.0000000E+000	0.0000000E+000	0.0000000E+000	1.30764	43.8086	88.6924	-0.00596531
0.311199	0.136183	0.0022838	0.136203	-0.960761	158.984	-0.000180558	-1.76058	2.23936e+08	62960.6	1	37	0.00511219	0.0375337	0	-0.0709667	0.100091	0.0596333	0.792806	1.6123e-06	3.88806e-06	1.08667e-06	1.97473e-06	1.32542e-06	7.51124e-07	0.118774	0.0569243	0.282772	1.14259e-05	2.57657e-05	6.93677e-06	3.16188e-05	5.76285e-06	5.82401e-06	7.34097	0.123108	7.342	0.960761	6.29607e+07	3.75436e+09	3.75489e+09	-89.0392	0.0000000E+000	0.0000000E+000	0.0000000E+000	89.0392	0.0000000E+000	0.0000000E+000	0.0000000E+000	-89.0392	0.0000000E+000	0.0000000E+000	0.0000000E+000	-0.960761	0.0000000E+000	0.0000000E+000	0.0000000E+000	0.960761	59.6302	89.0392	-0.004874
0.0988834	0.137353	0.000881633	0.137355	-0.367763	366.105	-0.000190945	-1.73309	1.82561e+09	75213	1	37	0.00511151	0.0372137	0	-0.175569	0.109942	0.0829526	0.459294	1.61194e-06	4.2092e-06	9.15652e-07	2.91801e-06	8.87886e-07	7.94565e-07	0.114448	0.107358	0.240189	4.68012e-06	2.59499e-05	5.8117e-06	3.13384e-05	7.58519e-06	5.7789e-06	7.28023	0.04673	7.28038	0.367763	7.52124e+07	1.17177e+10	1.17179e+10	-89.6322	0.0000000E+000	0.0000000E+000	0.0000000E+000	89.6322	0.0000000E+000	0.0000000E+000	0.0000000E+000	-89.6322	0.0000000E+000	0.0000000E+000	0.0000000E+000	-0.367763	0.0000000E+000	0.0000000E+000	0.0000000E+000	0.367763	155.793	89.6322	-0.0180456
0.0314526	0.13723	0.000296896	0.13723	-0.123959	1014.27	-0.000184573	-1.63176	1.70436e+10	79775.3	1	37	0.00511074	0.0372421	0	-0.525893	0.104779	0.161297	0.292047	1.99866e-06	3.60473e-06	9.50497e-07	2.78443e-06	6.29218e-07	5.83951e-07	0.11975	0.160611	0.215159	1.21939e-05	1.76532e-05	6.35243e-06	3.58988e-05	9.52957e-06	7.23436e-06	7.287	0.0157654	7.28702	0.123959	7.97777e+07	3.68734e+10	3.68735e+10	-89.876	0.0000000E+000	0.0000000E+000	0.0000000E+000	89.876	0.0000000E+000	0.0000000E+000	0.0000000E+000	-89.876	0.0000000E+000	0.0000000E+000	0.0000000E+000	-0.123959	0.0000000E+000	0.0000000E+000	0.0000000E+000	0.123959	462.216	89.876	-0.120487
0.0250094	0.13698	0.000297586	0.13698	-0.124474	1258.73	-0.000206019	-1.72346	2.13847e+10	100928	1	37	0.00511338	0.0373293	0	-0.653047	0.116502	0.178392	0.26652	2.43028e-06	4.34706e-06	1.56546e-06	2.1426e-06	8.96726e-07	7.15723e-07	0.129643	0.154528	0.188081	2.17021e-05	2.85029e-05	1.59898e-05	2.5999e-05	5.74234e-06	6.0815e-06	7.3003	0.0158597	7.30032	0.124474	1.00928e+08	4.64576e+10	4.64577e+10	-89.8755	0.0000000E+000	0.0000000E+000	0.0000000E+000	89.8755	0.0000000E+000	0.0000000E+000	0.0000000E+000	-89.8755	0.0000000E+000	0.0000000E+000	0.0000000E+000	-0.124474	0.0000000E+000	0.0000000E+000	0.0000000E+000	0.124474	460.304	89.8755	-0.127154