File: Python/Data/GoldElectrode/240319/Carbon/240319-CVEIS_Activation-0p5H2SO4-Ag_AgCl_BLF8-GC_RDE-80cycles_08_PEIS_C15.mpt
EC-Lab ASCII FILE
Nb header lines : 66

Potentio Electrochemical Impedance Spectroscopy

Run on channel : 15 (SN 19485)
User :
Electrode connection : standard
Potential control : Ewe
Ewe ctrl range : min = -2.50 V, max = 2.50 V
Ewe,I filtering : 50 kHz
Safety Limits :
	Do not start on E overload
Channel : Floating
Acquisition started on : 03/19/2024 14:45:18.810
Loaded Setting File :  C:\Data\mathias\GoldElectrode\240313-CVEIS_Activation-0p5H2SO4-Ag_AgCl_BLF8-Au_RDE-80cycles.mps
Saved on :
	File : 240319-CVEIS_Activation-0p5H2SO4-Ag_AgCl_BLF8-GC_RDE-80cycles_08_PEIS_C15.mpr
	Directory : C:\Data\mathias\GoldElectrode\
	Host : 192.168.0.1
Device : VMP-300 (SN 0826)
Address : USB
EC-Lab for windows v11.52 (software)
Internet server v11.52 (firmware)
Command interpretor v11.52 (firmware)
Electrode material :
Initial state :
Electrolyte :
Comments :
Cable : special
Electrode surface area : 0.001 cm²
Characteristic mass : 0.001 g
Equivalent Weight : 0.000 g/eq.
Density : 0.000 g/cm3
Volume (V) : 0.001 cm³
Record EIS quality indicators
Cycle Definition : Charge/Discharge alternance
Mode                Single sine
E (V)               0.0000
vs.                 Eoc
tE (h:m:s)          0:00:0.0000
record              0
dI                  0.000
unit dI             mA
dt (s)              0.000
fi                  100.000
unit fi             kHz
ff                  100.000
unit ff             Hz
Nd                  10
Points              per decade
spacing             Logarithmic
Va (mV)             5.0
pw                  0.10
Na                  2
corr                0
E range min (V)     -2.500
E range max (V)     2.500
I Range             Auto
Bandwidth           8
nc cycles           0
goto Ns'            0
nr cycles           0
inc. cycle          0

freq/Hz	Re(Z)/Ohm	-Im(Z)/Ohm	|Z|/Ohm	Phase(Z)/deg	time/s	<Ewe>/V	<I>/mA	Cs/µF	Cp/µF	cycle number	I Range	|Ewe|/V	|I|/A	Ns	(Q-Qo)/mA.h	THD Ewe/%	NSD Ewe/%	NSR Ewe/%	|Ewe h2|/V	|Ewe h3|/V	|Ewe h4|/V	|Ewe h5|/V	|Ewe h6|/V	|Ewe h7|/V	THD I/%	NSD I/%	NSR I/%	|I h2|/A	|I h3|/A	|I h4|/A	|I h5|/A	|I h6|/A	|I h7|/A	Re(Y)/Ohm-1	Im(Y)/Ohm-1	|Y|/Ohm-1	Phase(Y)/deg	Re(C)/nF	Im(C)/nF	|C|/nF	Phase(C)/deg	Re(M)	Im(M)	|M|	Phase(M)/deg	Re(Permittivity)	Im(Permittivity)	|Permittivity|	Phase(Permittivity)/deg	Re(Resistivity)/Ohm.cm	Im(Resistivity)/Ohm.cm	|Resistivity|/Ohm.cm	Phase(Resistivity)/deg	Re(Conductivity)/mS/cm	Im(Conductivity)/mS/cm	|Conductivity|/mS/cm	Phase(Conductivity)/deg	Tan(Delta)	Loss Angle(Delta)/deg	dq/mA.h
100004	7.84442	0.800084	7.88511	-5.82369	1163.73	0.334477	-0.019722	1.98915	0.0204797	1	38	0.00483547	0.000613241	0	-5.60832e-06	3.14618	0.923671	82.772	9.16841e-05	2.81268e-05	5.20049e-05	8.35024e-05	3.81663e-05	4.93812e-05	0.334638	0.182785	6.15101	1.09528e-06	7.70438e-07	6.75395e-07	7.87685e-07	3.40621e-07	8.06405e-07	0.126167	0.0128683	0.126821	5.82369	20.4797	200.793	201.835	-84.1763	0.0000000E+000	0.0000000E+000	0.0000000E+000	84.1763	0.0000000E+000	0.0000000E+000	0.0000000E+000	-84.1763	0.0000000E+000	0.0000000E+000	0.0000000E+000	-5.82369	0.0000000E+000	0.0000000E+000	0.0000000E+000	5.82369	9.80449	84.1763	-5.60832e-06
63093.8	8.00633	0.762066	8.04251	-5.4372	1165.36	0.334442	-0.00951478	3.3101	0.0297196	1	38	0.00516899	0.000642709	0	-9.56116e-06	4.78676	2.58623	77.6031	0.000189424	4.39101e-05	8.16897e-05	4.81487e-05	4.29454e-05	5.39315e-05	0.406318	0.220215	5.88628	1.53954e-06	7.87683e-07	1.15013e-06	5.65855e-07	9.73504e-07	5.53478e-07	0.12378	0.0117817	0.124339	5.4372	29.7196	312.236	313.647	-84.5628	0.0000000E+000	0.0000000E+000	0.0000000E+000	84.5628	0.0000000E+000	0.0000000E+000	0.0000000E+000	-84.5628	0.0000000E+000	0.0000000E+000	0.0000000E+000	-5.4372	0.0000000E+000	0.0000000E+000	0.0000000E+000	5.4372	10.5061	84.5628	-1.39543e-06
39814.1	8.072	0.911651	8.12331	-6.44368	1166.98	0.334411	-0.0100808	4.38485	0.0552263	1	38	0.00518596	0.000638404	0	-1.40437e-05	2.53168	1.44523	76.4271	9.45755e-05	4.00493e-05	3.51648e-05	4.73462e-05	3.10884e-05	4.18506e-05	0.244839	0.169183	5.87374	9.18119e-07	6.04456e-07	5.89126e-07	4.5341e-07	4.51144e-07	3.9498e-07	0.122325	0.0138154	0.123102	6.44368	55.2263	488.988	492.097	-83.5563	0.0000000E+000	0.0000000E+000	0.0000000E+000	83.5563	0.0000000E+000	0.0000000E+000	0.0000000E+000	-83.5563	0.0000000E+000	0.0000000E+000	0.0000000E+000	-6.44368	0.0000000E+000	0.0000000E+000	0.0000000E+000	6.44368	8.85426	83.5563	-2.6989e-06
25116.9	8.20359	0.990252	8.26314	-6.88284	1168.61	0.334472	-0.00911633	6.39895	0.0918986	1	38	0.00515855	0.000624284	0	-1.99082e-05	4.56383	4.32818	76.8276	5.87338e-05	6.93289e-05	0.000114016	0.000154606	7.26553e-05	1.68248e-05	0.407048	0.252843	5.97928	7.90498e-07	1.006e-06	1.10425e-06	1.65388e-06	4.84166e-07	2.25041e-07	0.120147	0.0145029	0.121019	6.88284	91.8986	761.32	766.847	-83.1172	0.0000000E+000	0.0000000E+000	0.0000000E+000	83.1172	0.0000000E+000	0.0000000E+000	0.0000000E+000	-83.1172	0.0000000E+000	0.0000000E+000	0.0000000E+000	-6.88284	0.0000000E+000	0.0000000E+000	0.0000000E+000	6.88284	8.28435	83.1172	-3.29925e-06
15847.7	8.39247	1.40024	8.50848	-9.47227	1170.24	0.334465	-0.00960043	7.17218	0.194247	1	38	0.00511237	0.000600855	0	-2.42578e-05	3.48871	2.37868	79.3504	5.71956e-05	4.0065e-05	3.25279e-05	0.000110869	6.68029e-05	7.47165e-05	0.350638	0.17061	6.34741	5.29043e-07	6.36865e-07	1.27398e-06	6.81276e-07	1.01031e-06	3.64013e-07	0.115927	0.0193419	0.11753	9.47227	194.247	1164.23	1180.33	-80.5277	0.0000000E+000	0.0000000E+000	0.0000000E+000	80.5277	0.0000000E+000	0.0000000E+000	0.0000000E+000	-80.5277	0.0000000E+000	0.0000000E+000	0.0000000E+000	-9.47227	0.0000000E+000	0.0000000E+000	0.0000000E+000	9.47227	5.99359	80.5277	-1.55662e-06
10002.2	8.67241	2.02287	8.90521	-13.1297	1171.87	0.334467	-0.00916846	7.86603	0.405885	1	38	0.00510138	0.000572853	0	-2.88089e-05	4.00514	2.14842	79.9861	6.74907e-05	0.000103686	5.71686e-05	6.39515e-05	0.000111834	3.1603e-05	0.310834	0.14562	6.60078	3.98355e-07	9.30155e-07	6.01792e-07	5.82612e-07	5.54361e-07	1.04805e-06	0.109358	0.0255082	0.112294	13.1297	405.885	1740.1	1786.81	-76.8703	0.0000000E+000	0.0000000E+000	0.0000000E+000	76.8703	0.0000000E+000	0.0000000E+000	0.0000000E+000	-76.8703	0.0000000E+000	0.0000000E+000	0.0000000E+000	-13.1297	0.0000000E+000	0.0000000E+000	0.0000000E+000	13.1297	4.28718	76.8703	-1.7681e-06
6307.74	8.92992	2.84911	9.37341	-17.6954	1173.62	0.334301	-0.00905488	8.85601	0.8182	1	38	0.0051359	0.000547922	0	-3.28588e-05	3.60799	3.42	77.1962	5.03879e-05	9.57563e-05	4.20308e-05	9.98119e-05	6.49031e-05	2.22395e-05	0.312261	0.387572	7.04068	3.78074e-07	4.44623e-07	8.67769e-07	8.66559e-07	3.85755e-07	8.21532e-07	0.101637	0.0324275	0.106685	17.6954	818.2	2564.48	2691.84	-72.3046	0.0000000E+000	0.0000000E+000	0.0000000E+000	72.3046	0.0000000E+000	0.0000000E+000	0.0000000E+000	-72.3046	0.0000000E+000	0.0000000E+000	0.0000000E+000	-17.6954	0.0000000E+000	0.0000000E+000	0.0000000E+000	17.6954	3.13429	72.3046	-2.25367e-06
3981.28	9.2189	4.05127	10.0698	-23.7232	1175.34	0.33441	-0.00846838	9.86749	1.59715	1	38	0.00513893	0.000510331	0	-3.75691e-05	5.19712	1.10619	78.9421	0.00011272	3.03322e-05	8.87451e-05	0.00016991	9.04703e-05	5.21363e-05	0.366318	0.335944	7.291	5.48097e-07	7.29863e-07	3.22786e-07	1.2625e-06	5.56827e-07	5.36176e-07	0.0909154	0.039953	0.0993068	23.7232	1597.15	3634.42	3969.87	-66.2768	0.0000000E+000	0.0000000E+000	0.0000000E+000	66.2768	0.0000000E+000	0.0000000E+000	0.0000000E+000	-66.2768	0.0000000E+000	0.0000000E+000	0.0000000E+000	-23.7232	0.0000000E+000	0.0000000E+000	0.0000000E+000	23.7232	2.27556	66.2768	-2.38118e-06
2512.41	9.58514	5.99019	11.303	-32.0031	1176.82	0.334332	-0.00849444	10.5752	2.97019	1	38	0.00524876	0.00046437	0	-4.10958e-05	4.60279	4.13609	76.3272	7.2601e-05	0.000103281	0.000155511	7.62164e-05	7.21509e-05	6.92527e-05	0.39524	0.254608	8.25898	1.04357e-06	7.28591e-07	3.36467e-07	6.17844e-07	5.14147e-07	8.50979e-07	0.0750261	0.0468872	0.0884722	32.0031	2970.19	4752.72	5604.5	-57.9969	0.0000000E+000	0.0000000E+000	0.0000000E+000	57.9969	0.0000000E+000	0.0000000E+000	0.0000000E+000	-57.9969	0.0000000E+000	0.0000000E+000	0.0000000E+000	-32.0031	0.0000000E+000	0.0000000E+000	0.0000000E+000	32.0031	1.60014	57.9969	-1.98791e-06
1584.49	10.2638	8.74902	13.4867	-40.4448	1178.31	0.334265	-0.00805131	11.4808	4.83147	1	38	0.00524813	0.000389134	0	-4.39974e-05	3.88094	1.34685	76.4566	6.99634e-05	9.71204e-05	8.63515e-05	8.14532e-05	7.05682e-05	5.93361e-05	0.544555	0.209797	10.1483	4.83525e-07	1.16977e-06	5.99154e-07	3.2109e-07	9.41826e-07	5.94365e-07	0.0564283	0.0481004	0.0741472	40.4448	4831.47	5667.96	7447.74	-49.5552	0.0000000E+000	0.0000000E+000	0.0000000E+000	49.5552	0.0000000E+000	0.0000000E+000	0.0000000E+000	-49.5552	0.0000000E+000	0.0000000E+000	0.0000000E+000	-40.4448	0.0000000E+000	0.0000000E+000	0.0000000E+000	40.4448	1.17314	49.5552	-1.45448e-06
999.682	11.2704	13.0952	17.2774	-49.283	1179.8	0.334395	-0.00752997	12.1575	6.98418	1	38	0.00523757	0.000303146	0	-4.73396e-05	3.87117	2.06475	75.1411	9.77712e-05	5.62601e-05	6.77051e-05	5.67519e-05	7.89835e-05	7.75513e-05	0.628169	0.377843	12.8027	4.84324e-07	8.56541e-07	5.84982e-07	4.84276e-07	1.21447e-06	4.52466e-07	0.0377559	0.0438689	0.0578791	49.283	6984.18	6010.96	9214.68	-40.717	0.0000000E+000	0.0000000E+000	0.0000000E+000	40.717	0.0000000E+000	0.0000000E+000	0.0000000E+000	-40.717	0.0000000E+000	0.0000000E+000	0.0000000E+000	-49.283	0.0000000E+000	0.0000000E+000	0.0000000E+000	49.283	0.860653	40.717	-1.48275e-06
631.01	12.6287	19.2757	23.0443	-56.7687	1181.29	0.334411	-0.00376141	13.085	9.15522	1	38	0.00512858	0.000222554	0	-5.01714e-05	4.7481	2.74825	78.2843	9.16411e-05	8.96229e-05	0.000102079	0.000125277	8.30412e-05	6.3913e-05	0.972062	0.409162	17.5309	8.01816e-07	1.05996e-06	7.24612e-07	8.88777e-07	6.10621e-07	7.96137e-07	0.0237812	0.0362981	0.0433947	56.7687	9155.21	5998.16	10945.1	-33.2313	0.0000000E+000	0.0000000E+000	0.0000000E+000	33.2313	0.0000000E+000	0.0000000E+000	0.0000000E+000	-33.2313	0.0000000E+000	0.0000000E+000	0.0000000E+000	-56.7687	0.0000000E+000	0.0000000E+000	0.0000000E+000	56.7687	0.655163	33.2314	-1.07886e-06
398.089	14.5336	29.2515	32.663	-63.5796	1183.03	0.334339	-0.000980568	13.6676	10.9616	1	39	0.00533331	0.000163283	0	-5.18054e-05	3.35303	2.61808	72.0112	4.4446e-05	7.2049e-05	6.48163e-05	8.29274e-05	5.43705e-05	8.1912e-05	0.629617	0.443179	10.9978	1.83144e-07	7.11735e-07	3.90733e-07	3.1596e-07	2.15252e-07	4.25624e-07	0.0136226	0.027418	0.0306157	63.5796	10961.6	5446.27	12240.1	-26.4204	0.0000000E+000	0.0000000E+000	0.0000000E+000	26.4204	0.0000000E+000	0.0000000E+000	0.0000000E+000	-26.4204	0.0000000E+000	0.0000000E+000	0.0000000E+000	-63.5796	0.0000000E+000	0.0000000E+000	0.0000000E+000	63.5796	0.496849	26.4204	-6.02394e-07
251.206	16.6974	43.9111	46.9786	-69.1804	1184.51	0.3344	-0.00059756	14.4283	12.6056	1	39	0.00513667	0.000109341	0	-5.21009e-05	4.11493	2.20478	73.8742	6.00604e-05	9.0452e-05	6.77198e-05	9.55236e-05	9.51131e-05	9.20515e-05	1.05226	0.495263	15.9101	3.31252e-07	4.32969e-07	1.96536e-07	4.70361e-07	3.01577e-07	7.44072e-07	0.0075657	0.0198964	0.0212863	69.1804	12605.6	4793.35	13486.2	-20.8195	0.0000000E+000	0.0000000E+000	0.0000000E+000	20.8195	0.0000000E+000	0.0000000E+000	0.0000000E+000	-20.8195	0.0000000E+000	0.0000000E+000	0.0000000E+000	-69.1804	0.0000000E+000	0.0000000E+000	0.0000000E+000	69.1804	0.380255	20.8195	-7.15177e-08
158.529	19.7434	65.8577	68.7534	-73.3119	1186.01	0.334359	-0.000764557	15.2442	13.9871	1	39	0.00506967	7.3737e-05	0	-5.25758e-05	3.11373	1.95636	76.3689	6.11585e-05	4.03774e-05	9.2032e-05	6.20921e-05	7.11219e-05	2.90583e-05	1.38224	1.07538	24.3271	4.53986e-07	4.30182e-07	3.09281e-07	3.03433e-07	4.92309e-07	3.73709e-07	0.00417669	0.0139321	0.0145447	73.3119	13987.1	4193.18	14602.2	-16.6881	0.0000000E+000	0.0000000E+000	0.0000000E+000	16.6881	0.0000000E+000	0.0000000E+000	0.0000000E+000	-16.6881	0.0000000E+000	0.0000000E+000	0.0000000E+000	-73.3119	0.0000000E+000	0.0000000E+000	0.0000000E+000	73.3119	0.299788	16.6881	-1.9644e-07
99.9682	26.2359	99.6053	103.003	-75.2435	1187.48	0.334381	-0.000952614	15.9836	14.9467	1	39	0.00504079	4.89384e-05	0	-5.27244e-05	4.4213	2.69192	77.3952	5.49128e-05	4.57559e-05	0.000111981	9.47628e-05	8.21294e-05	0.00010368	2.08234	1.10444	36.5344	4.50374e-07	4.0989e-07	2.94461e-07	5.30564e-07	2.9345e-07	3.79481e-07	0.00247286	0.00938827	0.00970849	75.2435	14946.7	3936.94	15456.5	-14.7565	0.0000000E+000	0.0000000E+000	0.0000000E+000	14.7565	0.0000000E+000	0.0000000E+000	0.0000000E+000	-14.7565	0.0000000E+000	0.0000000E+000	0.0000000E+000	-75.2435	0.0000000E+000	0.0000000E+000	0.0000000E+000	75.2435	0.263399	14.7565	-1.16654e-07