File: Python/Data/GoldElectrode/240319/Carbon/240319-CVEIS_Activation-0p5H2SO4-Ag_AgCl_BLF8-GC_RDE-80cycles_01_CV_C15.mpt
EC-Lab ASCII FILE
Nb header lines : 60

Cyclic Voltammetry

Run on channel : 15 (SN 19485)
User :
Electrode connection : standard
Potential control : Ewe
Ewe ctrl range : min = -2.50 V, max = 2.50 V
Ewe,I filtering : 50 kHz
Safety Limits :
	Do not start on E overload
Channel : Floating
Acquisition started on : 03/19/2024 14:45:18.810
Loaded Setting File :  C:\Data\mathias\GoldElectrode\240313-CVEIS_Activation-0p5H2SO4-Ag_AgCl_BLF8-Au_RDE-80cycles.mps
Saved on :
	File : 240319-CVEIS_Activation-0p5H2SO4-Ag_AgCl_BLF8-GC_RDE-80cycles_01_CV_C15.mpr
	Directory : C:\Data\mathias\GoldElectrode\
	Host : 192.168.0.1
Device : VMP-300 (SN 0826)
Address : USB
EC-Lab for windows v11.52 (software)
Internet server v11.52 (firmware)
Command interpretor v11.52 (firmware)
Electrode material :
Initial state :
Electrolyte :
Comments :
Cable : special
Electrode surface area : 0.001 cm²
Characteristic mass : 0.001 g
Equivalent Weight : 0.000 g/eq.
Density : 0.000 g/cm3
Volume (V) : 0.001 cm³
Record EIS quality indicators
Cycle Definition : Charge/Discharge alternance
Ei (V)              0.000
vs.                 Eoc
dE/dt               200.000
dE/dt unit          mV/s
E1 (V)              1.500
vs.                 Ref
Step percent        50
N                   10
E range min (V)     -2.500
E range max (V)     2.500
I Range             Auto
I Range min         Unset
I Range max         Unset
I Range init        Unset
Bandwidth           8
E2 (V)              -0.300
vs.                 Ref
nc cycles           0
Reverse Scan        1
Ef (V)              0.000
vs.                 Eoc

mode	ox/red	error	control changes	counter inc.	time/s	control/V	Ewe/V	<I>/mA	cycle number	(Q-Qo)/C	I Range	step time/s	P/W
2	1	0	0	0	0.000000000000000E+000	0.335495	0.334569	0.000364533	1	0.0000000E+000	43	0.000000000000000E+000	1.21962e-07
2	1	0	1	0	0.1778	0.371027	0.370786	0.00180461	1	2.6421e-07	42	0.175	6.69124e-07
2	1	0	1	0	0.3277	0.401012	0.40076	0.00218403	1	5.67308e-07	42	0.3249	8.75271e-07
2	1	0	1	0	0.4776	0.430997	0.43074	0.00244295	1	9.17751e-07	42	0.4748	1.05228e-06
2	1	0	1	0	0.6275	0.460982	0.460767	0.00261323	1	1.30152e-06	42	0.6247	1.20409e-06
2	1	0	1	0	0.7775	0.490966	0.490736	0.00273509	1	1.70653e-06	42	0.7747	1.34221e-06
2	1	0	1	0	0.9274	0.520951	0.520733	0.00281634	1	2.12561e-06	42	0.9246	1.46656e-06
2	1	0	1	0	1.0773	0.550936	0.550699	0.00292263	1	2.55746e-06	42	1.0745	1.60949e-06
2	1	0	1	0	1.2272	0.580921	0.580689	0.00302684	1	3.00472e-06	42	1.2244	1.75765e-06
2	1	0	1	0	1.3772	0.610906	0.610668	0.00320144	1	3.47293e-06	42	1.3744	1.95502e-06
2	1	0	1	0	1.5271	0.640891	0.640656	0.0034269	1	3.9697e-06	42	1.5243	2.19546e-06
2	1	0	1	0	1.677	0.670876	0.670621	0.00370192	1	4.5037e-06	42	1.6742	2.48258e-06
2	1	0	1	0	1.8269	0.70086	0.700618	0.00406785	1	5.08627e-06	42	1.8241	2.85001e-06
2	1	0	1	0	1.9768	0.730841	0.730607	0.00455014	1	5.7303e-06	42	1.974	3.32437e-06
2	1	0	1	0	2.1268	0.76083	0.760571	0.00513485	1	6.45219e-06	42	2.124	3.90541e-06
2	1	0	1	0	2.2767	0.790815	0.790562	0.00580433	1	7.2691e-06	42	2.2739	4.58868e-06
2	1	0	1	0	2.4266	0.8208	0.820554	0.00659782	1	8.19694e-06	42	2.4238	5.41387e-06
2	1	0	1	0	2.5765	0.850785	0.850547	0.00735013	1	9.23978e-06	42	2.5737	6.25163e-06
2	1	0	1	0	2.7265	0.880769	0.880525	0.00821756	1	1.04041e-05	42	2.7237	7.23577e-06
2	1	0	1	0	2.8764	0.910755	0.910503	0.0091006	1	1.16985e-05	42	2.8736	8.28613e-06
2	1	0	1	0	3.0263	0.940739	0.940488	0.0100218	1	1.31288e-05	42	3.0235	9.42539e-06
2	1	0	1	0	3.1762	0.970724	0.97047	0.0109545	1	1.46957e-05	42	3.1734	1.06311e-05
2	1	0	1	0	3.3562	1.00671	1.00646	0.012132	1	1.67661e-05	41	3.3534	1.22104e-05
2	1	0	1	0	3.5061	1.03669	1.03647	0.0133032	1	1.86698e-05	41	3.5033	1.37883e-05
2	1	0	1	0	3.656	1.06668	1.06645	0.014631	1	2.07605e-05	41	3.6532	1.56032e-05
2	1	0	1	0	3.8059	1.09666	1.09644	0.0162405	1	2.30691e-05	41	3.8031	1.78067e-05
2	1	0	1	0	3.9558	1.12663	1.12641	0.0183267	1	2.56484e-05	41	3.953	2.06434e-05
2	1	0	1	0	4.1058	1.15663	1.15639	0.0211394	1	2.85986e-05	41	4.103	2.44454e-05
2	1	0	1	0	4.2557	1.18662	1.18637	0.0233981	1	3.19508e-05	41	4.2529	2.77588e-05
2	1	0	1	0	4.4056	1.2166	1.21636	0.0258803	1	3.56343e-05	41	4.4028	3.14797e-05
2	1	0	1	0	4.5555	1.24658	1.24633	0.0283319	1	3.96942e-05	41	4.5527	3.5311e-05
2	1	0	1	0	4.7055	1.27657	1.27632	0.0313694	1	4.41609e-05	41	4.7027	4.00373e-05
2	1	0	1	0	4.8554	1.30655	1.3063	0.0348521	1	4.91192e-05	41	4.8526	4.55274e-05
2	1	0	1	0	5.0053	1.33654	1.33629	0.0387507	1	5.46268e-05	41	5.0025	5.17821e-05
2	1	0	1	0	5.1552	1.36652	1.36625	0.0433235	1	6.07669e-05	41	5.1524	5.91906e-05
2	1	0	1	0	5.3052	1.39651	1.39625	0.0484742	1	6.76444e-05	41	5.3024	6.76821e-05
2	1	0	1	0	5.4551	1.42649	1.42623	0.0545662	1	7.53473e-05	41	5.4523	7.78242e-05
2	1	0	1	0	5.605	1.45648	1.45622	0.0615315	1	8.40427e-05	41	5.6022	8.96032e-05
2	1	0	1	0	5.7549	1.48646	1.48622	0.0688647	1	9.38096e-05	41	5.7521	0.000102348
2	1	0	1	0	5.8959	1.48536	1.48508	0.043031	1	0.000102567	41	5.8931	6.39044e-05
2	1	0	1	0	6.0458	1.45538	1.45509	0.020744	1	0.000107069	41	6.043	3.01845e-05
2	1	0	1	0	6.1957	1.42539	1.4251	0.0111602	1	0.000109371	41	6.1929	1.59044e-05
2	1	0	1	0	6.3456	1.39541	1.39513	0.00624488	1	0.000110637	41	6.3428	8.71241e-06
2	1	0	1	0	6.4956	1.36542	1.36513	0.00340141	1	0.00011134	41	6.4928	4.64336e-06
2	1	0	1	0	6.6755	1.32944	1.32915	0.00130967	1	0.000111758	42	6.6727	1.74075e-06
2	1	0	1	0	6.8254	1.29946	1.29914	0.000234709	1	0.000111872	42	6.8226	3.04921e-07
2	0	0	1	0	6.9753	1.26947	1.26922	-0.000539906	1	0.00011185	42	0.0999	-6.85261e-07
2	0	0	1	0	7.1252	1.23949	1.23921	-0.00109066	1	0.000111729	42	0.2498	-1.35156e-06
2	0	0	1	0	7.2752	1.2095	1.20918	-0.00151466	1	0.000111536	42	0.3998	-1.8315e-06
2	0	0	1	0	7.4251	1.17952	1.17923	-0.00183745	1	0.000111285	42	0.5497	-2.16678e-06
2	0	0	1	0	7.575	1.14953	1.14924	-0.00214709	1	0.000110989	42	0.6996	-2.46751e-06
2	0	0	1	0	7.7249	1.11955	1.11926	-0.0023443	1	0.000110657	42	0.8495	-2.6239e-06
2	0	0	1	0	7.8749	1.08956	1.08928	-0.00256059	1	0.000110292	42	0.9995	-2.78921e-06
2	0	0	1	0	8.0248	1.05958	1.05928	-0.00272722	1	0.0001099	42	1.1494	-2.8889e-06
2	0	0	1	0	8.1747	1.02959	1.0293	-0.00288813	1	0.000109484	42	1.2993	-2.97276e-06
2	0	0	1	0	8.3246	0.99961	0.999314	-0.00302755	1	0.000109045	42	1.4492	-3.02547e-06
2	0	0	1	0	8.4746	0.969625	0.969332	-0.00318775	1	0.000108584	42	1.5992	-3.08999e-06
2	0	0	1	0	8.6245	0.93964	0.939354	-0.00329918	1	0.000108102	42	1.7491	-3.0991e-06
2	0	0	1	0	8.7744	0.909655	0.909374	-0.00347098	1	0.000107598	42	1.899	-3.15642e-06
2	0	0	1	0	8.9243	0.87967	0.879393	-0.00359695	1	0.000107072	42	2.0489	-3.16313e-06
2	0	0	1	0	9.0742	0.849699	0.849435	-0.00379518	1	0.000106523	42	2.1988	-3.22376e-06
2	0	0	1	0	9.2242	0.8197	0.819426	-0.00394636	1	0.000105949	42	2.3488	-3.23375e-06
2	0	0	1	0	9.3741	0.789716	0.789442	-0.00413395	1	0.000105348	42	2.4987	-3.26351e-06
2	0	0	1	0	9.524	0.759731	0.759463	-0.00432879	1	0.000104719	42	2.6486	-3.28756e-06
2	0	0	1	0	9.6739	0.729746	0.729471	-0.00456324	1	0.000104059	42	2.7985	-3.32875e-06
2	0	0	1	0	9.8239	0.699761	0.699483	-0.0047622	1	0.000103365	42	2.9485	-3.33108e-06
2	0	0	1	0	9.9738	0.669776	0.669491	-0.00501789	1	0.000102635	42	3.0984	-3.35943e-06
2	0	0	1	0	10.1237	0.639791	0.639493	-0.00528459	1	0.000101867	42	3.2483	-3.37945e-06
2	0	0	1	0	10.2736	0.609806	0.609528	-0.00562206	1	0.000101053	42	3.3982	-3.4268e-06
2	0	0	1	0	10.4236	0.579822	0.57956	-0.00603085	1	0.000100183	42	3.5482	-3.49524e-06
2	0	0	1	0	10.5735	0.549837	0.549569	-0.00676319	1	9.92272e-05	42	3.6981	-3.71684e-06
2	0	0	1	0	10.7234	0.519852	0.5196	-0.00724535	1	9.81645e-05	42	3.848	-3.76468e-06
2	0	0	1	0	10.8733	0.489867	0.489637	-0.00735673	1	9.70712e-05	42	3.9979	-3.60212e-06
2	0	0	1	0	11.0233	0.459882	0.45963	-0.00763894	1	9.59467e-05	42	4.1479	-3.51109e-06
2	0	0	1	0	11.1732	0.429897	0.429616	-0.00810397	1	9.47658e-05	42	4.2978	-3.4816e-06
2	0	0	1	0	11.3231	0.399912	0.399635	-0.00862862	1	9.35105e-05	42	4.4477	-3.44829e-06
2	0	0	1	0	11.473	0.369928	0.36965	-0.0091153	1	9.21771e-05	42	4.5976	-3.36947e-06
2	0	0	1	0	11.623	0.339943	0.33967	-0.00952059	1	9.07735e-05	42	4.7476	-3.23386e-06
2	0	0	1	0	11.7729	0.309958	0.30971	-0.00981159	1	8.93186e-05	42	4.8975	-3.03875e-06
2	0	0	1	0	11.9228	0.279973	0.279692	-0.00997498	1	8.78309e-05	42	5.0474	-2.78992e-06
2	0	0	1	0	12.0727	0.249988	0.249736	-0.0100456	1	8.63258e-05	42	5.1973	-2.50874e-06
2	0	0	1	0	12.2227	0.220003	0.219737	-0.0101352	1	8.48073e-05	42	5.3473	-2.22708e-06
2	0	0	1	0	12.3726	0.190019	0.189729	-0.0102529	1	8.3276e-05	42	5.4972	-1.94526e-06
2	0	0	1	0	12.5225	0.160034	0.159753	-0.010392	1	8.17268e-05	42	5.6471	-1.66015e-06
2	0	0	1	0	12.6724	0.130049	0.129759	-0.0105681	1	8.01527e-05	42	5.797	-1.3713e-06
2	0	0	1	0	12.8224	0.100064	0.0997799	-0.0108015	1	7.85461e-05	42	5.947	-1.07777e-06
2	0	0	1	0	13.0023	0.0640821	0.0637996	-0.0111032	1	7.65727e-05	41	6.1269	-7.08381e-07
2	0	0	1	0	13.1522	0.0340973	0.0337967	-0.0113254	1	7.48906e-05	41	6.2768	-3.82762e-07
2	0	0	1	0	13.3021	0.00411239	0.003818	-0.0115543	1	7.31751e-05	41	6.4267	-4.41145e-08
2	0	0	1	0	13.452	-0.0258725	-0.0261668	-0.0117476	1	7.14275e-05	41	6.5766	3.07397e-07
2	0	0	1	0	13.602	-0.0558573	-0.0561662	-0.0119588	1	6.96476e-05	41	6.7266	6.71679e-07
2	0	0	1	0	13.7519	-0.0858422	-0.0861304	-0.0121726	1	6.78368e-05	41	6.8765	1.04843e-06
2	0	0	1	0	13.9018	-0.115827	-0.116095	-0.0124231	1	6.59924e-05	41	7.0264	1.44226e-06
2	0	0	1	0	14.0517	-0.145812	-0.146107	-0.0126369	1	6.41119e-05	41	7.1763	1.84634e-06
2	0	0	1	0	14.2017	-0.175797	-0.176091	-0.0129002	1	6.21931e-05	41	7.3263	2.27161e-06
2	0	0	1	0	14.3516	-0.205782	-0.206079	-0.0132199	1	6.02345e-05	41	7.4762	2.72435e-06
2	0	0	1	0	14.5015	-0.235767	-0.236079	-0.0135883	1	5.82255e-05	41	7.6261	3.20791e-06
2	0	0	1	0	14.6514	-0.265751	-0.266046	-0.0140437	1	5.61533e-05	41	7.776	3.73627e-06
2	0	0	1	0	14.8014	-0.295736	-0.296045	-0.0147028	1	5.39966e-05	41	7.926	4.35268e-06
2	0	0	1	1	14.9456	-0.275447	-0.275691	-0.00470452	1	5.27783e-05	41	8.0702	1.297e-06
2	0	0	1	1	15.1255	-0.239465	-0.239716	-0.00147445	1	5.22572e-05	42	8.2501	3.53449e-07
2	0	0	1	1	15.2754	-0.20948	-0.209738	-0.000182479	1	5.21381e-05	42	8.4	3.82729e-08
2	1	0	1	1	15.4253	-0.179495	-0.179723	0.000658763	1	5.21734e-05	42	0.1149	-1.18395e-07
2	1	0	1	1	15.5753	-0.14951	-0.149712	0.00126433	1	5.23141e-05	42	0.2649	-1.89286e-07
2	1	0	1	1	15.7252	-0.119525	-0.119772	0.00170405	1	5.25343e-05	42	0.4148	-2.04098e-07
2	1	0	1	1	15.8751	-0.0895404	-0.0897715	0.0021113	1	5.2818e-05	42	0.5647	-1.89535e-07
2	1	0	1	1	16.025	-0.0595555	-0.0597971	0.00242756	1	5.31538e-05	42	0.7146	-1.45161e-07
2	1	0	1	1	16.175	-0.0295706	-0.0298297	0.00272421	1	5.35347e-05	42	0.8646	-8.12625e-08
2	1	0	1	1	16.3249	0.000414261	0.000169107	0.00294456	1	5.39553e-05	42	1.0145	4.97947e-10
2	1	0	1	1	16.4748	0.0303991	0.0301628	0.00319307	1	5.44121e-05	42	1.1644	9.63121e-08
2	1	0	1	1	16.6247	0.060384	0.0601434	0.00342184	1	5.49023e-05	42	1.3143	2.05801e-07
2	1	0	1	1	16.7747	0.0903688	0.0901181	0.00363695	1	5.54249e-05	42	1.4643	3.27755e-07
2	1	0	1	1	16.9246	0.120354	0.120106	0.00381663	1	5.59783e-05	42	1.6142	4.58402e-07
2	1	0	1	1	17.0745	0.150339	0.150096	0.00404261	1	5.65626e-05	42	1.7641	6.06778e-07
2	1	0	1	1	17.2244	0.180323	0.180086	0.00421803	1	5.71775e-05	42	1.914	7.59609e-07
2	1	0	1	1	17.3744	0.210308	0.210073	0.00448602	1	5.78257e-05	42	2.064	9.42391e-07
2	1	0	1	1	17.5243	0.240293	0.24004	0.00472438	1	5.8513e-05	42	2.2139	1.13404e-06
2	1	0	1	1	17.6742	0.270278	0.270032	0.00506177	1	5.92459e-05	42	2.3638	1.36684e-06
2	1	0	1	1	17.8241	0.300263	0.300006	0.00539521	1	6.00286e-05	42	2.5137	1.6186e-06
2	1	0	1	1	17.9741	0.330248	0.329995	0.00572316	1	6.08627e-05	42	2.6637	1.88861e-06
2	1	0	0	1	17.9956	0.334596	0.334314	0.00583746	1	6.09863e-05	42	2.6852	1.95154e-06