File: Python/Data/GoldElectrode/240319/Carbon/240319-CVEIS_Activation-0p5H2SO4-Ag_AgCl_BLF8-GC_RDE-80cycles_04_PEIS_C15.mpt
EC-Lab ASCII FILE
Nb header lines : 66

Potentio Electrochemical Impedance Spectroscopy

Run on channel : 15 (SN 19485)
User :
Electrode connection : standard
Potential control : Ewe
Ewe ctrl range : min = -2.50 V, max = 2.50 V
Ewe,I filtering : 50 kHz
Safety Limits :
	Do not start on E overload
Channel : Floating
Acquisition started on : 03/19/2024 14:45:18.810
Loaded Setting File :  C:\Data\mathias\GoldElectrode\240313-CVEIS_Activation-0p5H2SO4-Ag_AgCl_BLF8-Au_RDE-80cycles.mps
Saved on :
	File : 240319-CVEIS_Activation-0p5H2SO4-Ag_AgCl_BLF8-GC_RDE-80cycles_04_PEIS_C15.mpr
	Directory : C:\Data\mathias\GoldElectrode\
	Host : 192.168.0.1
Device : VMP-300 (SN 0826)
Address : USB
EC-Lab for windows v11.52 (software)
Internet server v11.52 (firmware)
Command interpretor v11.52 (firmware)
Electrode material :
Initial state :
Electrolyte :
Comments :
Cable : special
Electrode surface area : 0.001 cm²
Characteristic mass : 0.001 g
Equivalent Weight : 0.000 g/eq.
Density : 0.000 g/cm3
Volume (V) : 0.001 cm³
Record EIS quality indicators
Cycle Definition : Charge/Discharge alternance
Mode                Single sine
E (V)               0.0000
vs.                 Eoc
tE (h:m:s)          0:00:0.0000
record              0
dI                  0.000
unit dI             mA
dt (s)              0.000
fi                  100.000
unit fi             kHz
ff                  100.000
unit ff             Hz
Nd                  10
Points              per decade
spacing             Logarithmic
Va (mV)             5.0
pw                  0.10
Na                  2
corr                0
E range min (V)     -2.500
E range max (V)     2.500
I Range             Auto
Bandwidth           8
nc cycles           0
goto Ns'            0
nr cycles           0
inc. cycle          0

freq/Hz	Re(Z)/Ohm	-Im(Z)/Ohm	|Z|/Ohm	Phase(Z)/deg	time/s	<Ewe>/V	<I>/mA	Cs/µF	Cp/µF	cycle number	I Range	|Ewe|/V	|I|/A	Ns	(Q-Qo)/mA.h	THD Ewe/%	NSD Ewe/%	NSR Ewe/%	|Ewe h2|/V	|Ewe h3|/V	|Ewe h4|/V	|Ewe h5|/V	|Ewe h6|/V	|Ewe h7|/V	THD I/%	NSD I/%	NSR I/%	|I h2|/A	|I h3|/A	|I h4|/A	|I h5|/A	|I h6|/A	|I h7|/A	Re(Y)/Ohm-1	Im(Y)/Ohm-1	|Y|/Ohm-1	Phase(Y)/deg	Re(C)/nF	Im(C)/nF	|C|/nF	Phase(C)/deg	Re(M)	Im(M)	|M|	Phase(M)/deg	Re(Permittivity)	Im(Permittivity)	|Permittivity|	Phase(Permittivity)/deg	Re(Resistivity)/Ohm.cm	Im(Resistivity)/Ohm.cm	|Resistivity|/Ohm.cm	Phase(Resistivity)/deg	Re(Conductivity)/mS/cm	Im(Conductivity)/mS/cm	|Conductivity|/mS/cm	Phase(Conductivity)/deg	Tan(Delta)	Loss Angle(Delta)/deg	dq/mA.h
100004	8.10814	1.00863	8.17064	-7.09102	389.661	0.334469	-0.0198281	1.57787	0.024045	1	38	0.00451417	0.000552486	0	-5.19826e-06	3.89421	2.5435	87.798	9.59302e-05	4.64039e-05	6.88685e-05	4.49106e-05	7.24974e-05	6.788e-05	0.323973	0.210321	6.74199	1.1426e-06	8.27358e-07	6.4053e-07	5.03574e-07	3.19693e-07	5.11181e-07	0.121453	0.0151085	0.122389	7.09102	24.045	193.292	194.782	-82.909	0.0000000E+000	0.0000000E+000	0.0000000E+000	82.909	0.0000000E+000	0.0000000E+000	0.0000000E+000	-82.909	0.0000000E+000	0.0000000E+000	0.0000000E+000	-7.09102	0.0000000E+000	0.0000000E+000	0.0000000E+000	7.09102	8.03875	82.909	-5.19826e-06
63093.8	8.1728	1.16895	8.25597	-8.13977	391.289	0.334457	-0.0107213	2.15793	0.0432606	1	38	0.00516994	0.000626206	0	-9.31434e-06	3.98743	1.99035	78.277	9.35324e-05	4.31676e-05	8.32031e-05	0.000117077	7.27728e-05	6.30668e-05	0.387753	0.143717	5.95637	1.26598e-06	7.98397e-07	9.80795e-07	9.69029e-07	1.059e-06	3.24949e-07	0.119904	0.0171498	0.121124	8.13977	43.2606	302.46	305.538	-81.8602	0.0000000E+000	0.0000000E+000	0.0000000E+000	81.8602	0.0000000E+000	0.0000000E+000	0.0000000E+000	-81.8602	0.0000000E+000	0.0000000E+000	0.0000000E+000	-8.13977	0.0000000E+000	0.0000000E+000	0.0000000E+000	8.13977	6.99157	81.8602	-2.69036e-06
39814.1	8.24034	1.31144	8.34404	-9.04271	392.918	0.334522	-0.0101441	3.04814	0.0752972	1	38	0.00515919	0.000618308	0	-1.35332e-05	5.0746	1.4933	76.6264	0.000142991	4.70714e-05	6.03834e-05	7.056e-05	3.20764e-05	0.000185136	0.403366	0.134879	6.11035	7.682e-07	8.0141e-07	1.0439e-06	9.62249e-07	5.45553e-07	1.56096e-06	0.118356	0.0188363	0.119846	9.04271	75.2972	473.125	479.079	-80.9573	0.0000000E+000	0.0000000E+000	0.0000000E+000	80.9573	0.0000000E+000	0.0000000E+000	0.0000000E+000	-80.9573	0.0000000E+000	0.0000000E+000	0.0000000E+000	-9.04271	0.0000000E+000	0.0000000E+000	0.0000000E+000	9.04271	6.28343	80.9573	-3.18442e-06
25116.9	8.36601	1.72299	8.5416	-11.6374	394.547	0.3345	-0.00933231	3.67766	0.149644	1	38	0.00518102	0.000606564	0	-1.81337e-05	3.68335	2.41469	76.4003	0.000133038	7.05759e-05	2.71675e-05	5.36352e-05	4.9292e-05	6.73622e-05	0.359792	0.0937346	6.17629	1.02724e-06	6.72325e-07	3.57168e-07	1.43645e-06	4.20348e-07	3.89472e-07	0.114668	0.0236159	0.117074	11.6374	149.644	726.598	741.848	-78.3626	0.0000000E+000	0.0000000E+000	0.0000000E+000	78.3626	0.0000000E+000	0.0000000E+000	0.0000000E+000	-78.3626	0.0000000E+000	0.0000000E+000	0.0000000E+000	-11.6374	0.0000000E+000	0.0000000E+000	0.0000000E+000	11.6374	4.85553	78.3626	-2.49254e-06
15847.7	8.69802	2.42179	9.02888	-15.5588	396.175	0.334549	-0.00967118	4.14684	0.298348	1	38	0.0052365	0.000579972	0	-2.21766e-05	2.98001	1.69974	76.642	6.1327e-05	5.69148e-05	4.4602e-05	4.39562e-05	3.70951e-05	0.000103437	0.313396	0.15422	6.59775	9.4042e-07	5.23884e-07	7.95875e-07	7.84836e-07	6.83921e-07	3.92079e-07	0.106697	0.0297077	0.110756	15.5588	298.348	1071.54	1112.3	-74.4412	0.0000000E+000	0.0000000E+000	0.0000000E+000	74.4412	0.0000000E+000	0.0000000E+000	0.0000000E+000	-74.4412	0.0000000E+000	0.0000000E+000	0.0000000E+000	-15.5588	0.0000000E+000	0.0000000E+000	0.0000000E+000	15.5588	3.59156	74.4412	-2.57815e-06
10002.2	8.88889	3.12556	9.4224	-19.373	397.803	0.334521	-0.00848886	5.09091	0.560182	1	38	0.0049698	0.000527445	0	-2.52748e-05	2.95205	1.59214	79.6769	3.77481e-05	2.5398e-05	6.77663e-05	7.7339e-05	1.44762e-05	9.09241e-05	0.392382	0.229236	7.19082	1.09057e-06	6.48589e-07	3.82518e-07	3.34602e-07	4.45973e-07	1.33637e-06	0.100121	0.0352051	0.10613	19.373	560.182	1593.12	1688.74	-70.627	0.0000000E+000	0.0000000E+000	0.0000000E+000	70.627	0.0000000E+000	0.0000000E+000	0.0000000E+000	-70.627	0.0000000E+000	0.0000000E+000	0.0000000E+000	-19.373	0.0000000E+000	0.0000000E+000	0.0000000E+000	19.373	2.84393	70.627	-1.65084e-06
6307.74	9.21593	4.79988	10.391	-27.5116	399.551	0.3343	-0.00952968	5.25674	1.12167	1	38	0.00499201	0.000480418	0	-2.92043e-05	4.30158	6.31021	78.6248	8.59973e-05	9.89208e-05	0.000112309	8.84113e-05	5.5805e-05	3.58784e-05	0.310893	0.55143	7.63806	9.35319e-07	6.17249e-07	4.57326e-07	2.9382e-07	5.61559e-07	3.45625e-07	0.0853547	0.0444548	0.0962375	27.5116	1121.67	2153.64	2428.24	-62.4884	0.0000000E+000	0.0000000E+000	0.0000000E+000	62.4884	0.0000000E+000	0.0000000E+000	0.0000000E+000	-62.4884	0.0000000E+000	0.0000000E+000	0.0000000E+000	-27.5116	0.0000000E+000	0.0000000E+000	0.0000000E+000	27.5116	1.92003	62.4884	-1.47141e-06
3981.28	9.87874	6.79423	11.9896	-34.5188	401.05	0.334391	-0.00922805	5.88379	1.88941	1	38	0.00535689	0.000446794	0	-3.26217e-05	4.9793	1.32841	73.3274	4.73478e-05	0.000102644	9.60145e-05	0.000179871	6.62702e-05	5.72294e-05	0.438583	0.343772	8.66623	9.01067e-07	6.52883e-07	1.09368e-06	7.49085e-07	5.69589e-07	2.16462e-07	0.0687212	0.0472639	0.0834055	34.5188	1889.41	2747.19	3334.2	-55.4812	0.0000000E+000	0.0000000E+000	0.0000000E+000	55.4812	0.0000000E+000	0.0000000E+000	0.0000000E+000	-55.4812	0.0000000E+000	0.0000000E+000	0.0000000E+000	-34.5188	0.0000000E+000	0.0000000E+000	0.0000000E+000	34.5188	1.45399	55.4812	-1.6373e-06
2512.41	10.5182	9.73851	14.3343	-42.7958	402.536	0.334375	-0.00850376	6.50485	3.00242	1	38	0.00526249	0.000367127	0	-3.6292e-05	4.61026	1.86534	76.803	8.36709e-05	8.06405e-05	8.04857e-05	9.09091e-05	0.000114667	0.000101698	0.459383	0.44253	10.6808	3.9135e-07	4.64537e-07	9.49993e-07	5.3235e-07	6.67851e-07	7.30705e-07	0.0511907	0.047396	0.0697629	42.7958	3002.42	3242.8	4419.31	-47.2042	0.0000000E+000	0.0000000E+000	0.0000000E+000	47.2042	0.0000000E+000	0.0000000E+000	0.0000000E+000	-47.2042	0.0000000E+000	0.0000000E+000	0.0000000E+000	-42.7958	0.0000000E+000	0.0000000E+000	0.0000000E+000	42.7958	1.08006	47.2042	-1.71557e-06
1584.49	11.8837	14.7268	18.9236	-51.0985	404.023	0.334294	-0.00846466	6.82056	4.13079	1	38	0.00526668	0.000278313	0	-4.00646e-05	3.13297	1.13386	73.5763	3.12802e-05	9.77435e-05	7.8992e-05	7.87546e-05	3.11646e-05	4.0942e-05	0.828086	0.243335	13.6143	4.41651e-07	1.07574e-06	7.69611e-07	1.31593e-06	6.35664e-07	5.75011e-07	0.0331852	0.0411247	0.0528441	51.0985	4130.79	3333.3	5307.94	-38.9015	0.0000000E+000	0.0000000E+000	0.0000000E+000	38.9015	0.0000000E+000	0.0000000E+000	0.0000000E+000	-38.9015	0.0000000E+000	0.0000000E+000	0.0000000E+000	-51.0985	0.0000000E+000	0.0000000E+000	0.0000000E+000	51.0985	0.806941	38.9015	-1.92414e-06
999.682	12.9302	21.8036	25.3493	-59.3308	405.51	0.334366	-0.00874768	7.3018	5.402	1	38	0.00509999	0.000201188	0	-4.36122e-05	4.07573	1.50013	77.6183	8.55404e-05	0.000121829	6.63751e-05	7.20576e-05	5.98661e-05	7.02851e-05	1.20586	0.912483	19.09	1.63541e-06	1.14398e-06	7.91475e-07	4.90973e-07	5.42659e-07	7.61541e-07	0.0201221	0.033931	0.0394488	59.3308	5402	3203.55	6280.47	-30.6692	0.0000000E+000	0.0000000E+000	0.0000000E+000	30.6692	0.0000000E+000	0.0000000E+000	0.0000000E+000	-30.6692	0.0000000E+000	0.0000000E+000	0.0000000E+000	-59.3308	0.0000000E+000	0.0000000E+000	0.0000000E+000	59.3308	0.593031	30.6692	-1.74849e-06
631.01	16.0255	32.6359	36.3582	-63.8471	407.248	0.334361	-0.000783193	7.72838	6.22694	1	39	0.00544238	0.000149688	0	-4.57129e-05	6.4581	3.0607	70.6028	4.97968e-05	0.000142381	0.000255123	5.41214e-05	0.000169925	3.64838e-05	0.896769	0.210924	11.9047	4.16185e-07	5.67808e-07	7.4477e-07	5.70048e-07	5.02919e-07	1.85449e-07	0.0121229	0.0246883	0.0275041	63.8471	6226.94	3057.67	6937.16	-26.1529	0.0000000E+000	0.0000000E+000	0.0000000E+000	26.1529	0.0000000E+000	0.0000000E+000	0.0000000E+000	-26.1529	0.0000000E+000	0.0000000E+000	0.0000000E+000	-63.8471	0.0000000E+000	0.0000000E+000	0.0000000E+000	63.8471	0.49104	26.1529	-3.78156e-07
398.089	19.689	48.272	52.1329	-67.8107	408.736	0.334364	-0.000476413	8.28218	7.10086	1	39	0.00522488	0.000100222	0	-4.58825e-05	3.16884	2.0951	72.7186	7.25498e-05	4.39171e-05	7.27472e-05	7.83305e-05	4.80317e-05	5.26518e-05	0.840038	0.371923	18.0435	3.8143e-07	2.65333e-07	3.7622e-07	4.11077e-07	2.71565e-07	2.62497e-07	0.00724434	0.0177611	0.0191817	67.8107	7100.86	2896.27	7668.81	-22.1893	0.0000000E+000	0.0000000E+000	0.0000000E+000	22.1893	0.0000000E+000	0.0000000E+000	0.0000000E+000	-22.1893	0.0000000E+000	0.0000000E+000	0.0000000E+000	-67.8107	0.0000000E+000	0.0000000E+000	0.0000000E+000	67.8107	0.407875	22.1893	-5.97734e-08
251.206	25.7491	70.9573	75.4848	-70.0551	410.221	0.334423	-0.000925588	8.9288	7.88984	1	39	0.0050984	6.75421e-05	0	-4.6028e-05	3.41961	1.98873	75.365	6.11815e-05	8.86721e-05	4.4211e-05	7.96836e-05	6.55147e-05	6.45455e-05	1.30801	1.00022	25.9654	4.10395e-07	4.21524e-07	2.7107e-07	3.42204e-07	3.52984e-07	2.179e-07	0.004519	0.0124531	0.0132477	70.0551	7889.84	2863.08	8393.26	-19.9449	0.0000000E+000	0.0000000E+000	0.0000000E+000	19.9449	0.0000000E+000	0.0000000E+000	0.0000000E+000	-19.9449	0.0000000E+000	0.0000000E+000	0.0000000E+000	-70.0551	0.0000000E+000	0.0000000E+000	0.0000000E+000	70.0551	0.362881	19.9449	-1.68203e-08
158.529	32.9575	106.801	111.77	-72.8504	411.713	0.334421	-0.000772012	9.40019	8.58287	1	39	0.00511156	4.57327e-05	0	-4.63054e-05	4.15677	1.99004	76.0369	0.000134308	3.25548e-05	7.66121e-05	6.27507e-05	6.24107e-05	8.86015e-05	1.94463	0.791186	40.132	3.09292e-07	3.68322e-07	3.22651e-07	3.86564e-07	2.42483e-07	3.97904e-07	0.00263815	0.00854912	0.00894691	72.8504	8582.87	2648.57	8982.24	-17.1496	0.0000000E+000	0.0000000E+000	0.0000000E+000	17.1496	0.0000000E+000	0.0000000E+000	0.0000000E+000	-17.1496	0.0000000E+000	0.0000000E+000	0.0000000E+000	-72.8504	0.0000000E+000	0.0000000E+000	0.0000000E+000	72.8504	0.308588	17.1496	-1.91536e-07
99.9682	47.4404	157.628	164.612	-73.2501	413.186	0.334399	-0.000471383	10.1001	9.26121	1	39	0.00507056	3.0803e-05	0	-4.6565e-05	4.56848	2.49207	75.7449	4.47606e-05	9.76975e-05	9.20512e-05	5.91183e-05	0.00013665	4.92143e-05	2.41069	1.81315	56.6468	1.19795e-07	1.78094e-07	2.09903e-07	5.25617e-07	2.64538e-07	2.42651e-07	0.00175075	0.00581714	0.00607488	73.2501	9261.21	2787.29	9671.56	-16.7499	0.0000000E+000	0.0000000E+000	0.0000000E+000	16.7499	0.0000000E+000	0.0000000E+000	0.0000000E+000	-16.7499	0.0000000E+000	0.0000000E+000	0.0000000E+000	-73.2501	0.0000000E+000	0.0000000E+000	0.0000000E+000	73.2501	0.300964	16.7499	-1.60884e-07