File: Python/Data/GoldElectrode/240319/Carbon/240319-CVEIS_Activation-0p5H2SO4-Ag_AgCl_BLF8-GC_RDE-80cycles_02_PEIS_C15.mpt
EC-Lab ASCII FILE
Nb header lines : 66

Potentio Electrochemical Impedance Spectroscopy

Run on channel : 15 (SN 19485)
User :
Electrode connection : standard
Potential control : Ewe
Ewe ctrl range : min = -2.50 V, max = 2.50 V
Ewe,I filtering : 50 kHz
Safety Limits :
	Do not start on E overload
Channel : Floating
Acquisition started on : 03/19/2024 14:45:18.810
Loaded Setting File :  C:\Data\mathias\GoldElectrode\240313-CVEIS_Activation-0p5H2SO4-Ag_AgCl_BLF8-Au_RDE-80cycles.mps
Saved on :
	File : 240319-CVEIS_Activation-0p5H2SO4-Ag_AgCl_BLF8-GC_RDE-80cycles_02_PEIS_C15.mpr
	Directory : C:\Data\mathias\GoldElectrode\
	Host : 192.168.0.1
Device : VMP-300 (SN 0826)
Address : USB
EC-Lab for windows v11.52 (software)
Internet server v11.52 (firmware)
Command interpretor v11.52 (firmware)
Electrode material :
Initial state :
Electrolyte :
Comments :
Cable : special
Electrode surface area : 0.001 cm²
Characteristic mass : 0.001 g
Equivalent Weight : 0.000 g/eq.
Density : 0.000 g/cm3
Volume (V) : 0.001 cm³
Record EIS quality indicators
Cycle Definition : Charge/Discharge alternance
Mode                Single sine
E (V)               0.0000
vs.                 Eoc
tE (h:m:s)          0:00:0.0000
record              0
dI                  0.000
unit dI             mA
dt (s)              0.000
fi                  100.000
unit fi             kHz
ff                  100.000
unit ff             Hz
Nd                  10
Points              per decade
spacing             Logarithmic
Va (mV)             5.0
pw                  0.10
Na                  2
corr                0
E range min (V)     -2.500
E range max (V)     2.500
I Range             Auto
Bandwidth           8
nc cycles           0
goto Ns'            0
nr cycles           0
inc. cycle          0

freq/Hz	Re(Z)/Ohm	-Im(Z)/Ohm	|Z|/Ohm	Phase(Z)/deg	time/s	<Ewe>/V	<I>/mA	Cs/µF	Cp/µF	cycle number	I Range	|Ewe|/V	|I|/A	Ns	(Q-Qo)/mA.h	THD Ewe/%	NSD Ewe/%	NSR Ewe/%	|Ewe h2|/V	|Ewe h3|/V	|Ewe h4|/V	|Ewe h5|/V	|Ewe h6|/V	|Ewe h7|/V	THD I/%	NSD I/%	NSR I/%	|I h2|/A	|I h3|/A	|I h4|/A	|I h5|/A	|I h6|/A	|I h7|/A	Re(Y)/Ohm-1	Im(Y)/Ohm-1	|Y|/Ohm-1	Phase(Y)/deg	Re(C)/nF	Im(C)/nF	|C|/nF	Phase(C)/deg	Re(M)	Im(M)	|M|	Phase(M)/deg	Re(Permittivity)	Im(Permittivity)	|Permittivity|	Phase(Permittivity)/deg	Re(Resistivity)/Ohm.cm	Im(Resistivity)/Ohm.cm	|Resistivity|/Ohm.cm	Phase(Resistivity)/deg	Re(Conductivity)/mS/cm	Im(Conductivity)/mS/cm	|Conductivity|/mS/cm	Phase(Conductivity)/deg	Tan(Delta)	Loss Angle(Delta)/deg	dq/mA.h
100004	7.99918	1.23468	8.09391	-8.77439	20.5637	0.334443	-0.0194315	1.28899	0.0299945	1	38	0.00469211	0.000579709	0	-5.46557e-06	4.84282	2.24201	86.1459	6.5227e-05	7.53089e-05	9.2241e-05	9.53678e-05	6.01991e-05	0.000123714	0.391565	0.193467	6.52443	1.36178e-06	9.57462e-07	6.40288e-07	1.00847e-06	5.23543e-07	6.15096e-07	0.122104	0.0188468	0.12355	8.77439	29.9944	194.327	196.628	-81.2256	0.0000000E+000	0.0000000E+000	0.0000000E+000	81.2256	0.0000000E+000	0.0000000E+000	0.0000000E+000	-81.2256	0.0000000E+000	0.0000000E+000	0.0000000E+000	-8.77439	0.0000000E+000	0.0000000E+000	0.0000000E+000	8.77439	6.47876	81.2256	-5.46557e-06
63093.8	8.24297	1.39557	8.36027	-9.60927	22.1917	0.334418	-0.0102893	1.80752	0.0503666	1	38	0.00512007	0.000612429	0	-9.91146e-06	4.48528	2.53643	80.6747	0.00011783	2.51027e-05	9.35486e-05	7.93082e-05	0.000103462	6.40738e-05	0.312598	0.129707	6.23068	1.09401e-06	3.28169e-07	8.97099e-07	6.52193e-07	7.16879e-07	3.79135e-07	0.117935	0.0199668	0.119613	9.60927	50.3666	297.493	301.726	-80.3907	0.0000000E+000	0.0000000E+000	0.0000000E+000	80.3907	0.0000000E+000	0.0000000E+000	0.0000000E+000	-80.3907	0.0000000E+000	0.0000000E+000	0.0000000E+000	-9.60927	0.0000000E+000	0.0000000E+000	0.0000000E+000	9.60927	5.90654	80.3907	-2.49014e-06
39814.1	8.35241	1.92934	8.57235	-13.0067	23.8197	0.334457	-0.00886683	2.07193	0.104953	1	38	0.00525792	0.000613358	0	-1.49265e-05	4.1068	2.09621	75.5281	0.000140455	3.79551e-05	6.64699e-05	6.91001e-05	4.21872e-05	0.000115627	0.452386	0.1481	6.2288	1.69309e-06	7.88745e-07	1.32434e-06	8.29092e-07	9.78897e-07	8.14864e-07	0.113661	0.0262548	0.116654	13.0067	104.953	454.356	466.32	-76.9933	0.0000000E+000	0.0000000E+000	0.0000000E+000	76.9933	0.0000000E+000	0.0000000E+000	0.0000000E+000	-76.9933	0.0000000E+000	0.0000000E+000	0.0000000E+000	-13.0067	0.0000000E+000	0.0000000E+000	0.0000000E+000	13.0067	4.32915	76.9933	-2.99505e-06
25116.9	8.49982	2.4482	8.84538	-16.0679	25.4477	0.334549	-0.00896737	2.58826	0.198275	1	38	0.00515106	0.000582345	0	-1.89313e-05	3.69041	2.36945	78.3942	5.90045e-05	6.92747e-05	6.12262e-05	0.000126709	6.04012e-05	3.36173e-05	0.342522	0.171012	6.49511	1.12985e-06	7.5382e-07	7.48641e-07	8.15277e-07	7.25166e-07	5.72202e-07	0.108637	0.0312906	0.113053	16.0679	198.275	688.385	716.37	-73.9321	0.0000000E+000	0.0000000E+000	0.0000000E+000	73.9321	0.0000000E+000	0.0000000E+000	0.0000000E+000	-73.9321	0.0000000E+000	0.0000000E+000	0.0000000E+000	-16.0679	0.0000000E+000	0.0000000E+000	0.0000000E+000	16.0679	3.47187	73.9321	-9.12725e-07
15847.7	8.78672	3.48458	9.45245	-21.632	27.0767	0.334507	-0.00840134	2.88206	0.391667	1	38	0.00505128	0.000534388	0	-2.21077e-05	3.08985	2.59863	79.2625	3.39157e-05	0.000102352	4.22746e-05	4.26428e-05	7.20507e-05	4.73361e-05	0.338893	0.29603	7.17978	1.27363e-06	9.65749e-07	1.80469e-07	2.51075e-07	7.08165e-07	3.16796e-07	0.0983418	0.0389998	0.105793	21.632	391.667	987.626	1062.45	-68.368	0.0000000E+000	0.0000000E+000	0.0000000E+000	68.368	0.0000000E+000	0.0000000E+000	0.0000000E+000	-68.368	0.0000000E+000	0.0000000E+000	0.0000000E+000	-21.632	0.0000000E+000	0.0000000E+000	0.0000000E+000	21.632	2.5216	68.368	-1.336e-06
10002.2	9.2281	5.11664	10.5517	-29.0068	28.7047	0.334455	-0.00788745	3.10984	0.73125	1	38	0.00506714	0.000480221	0	-2.48734e-05	4.64403	1.91919	82.8476	6.5886e-05	8.92363e-05	6.87103e-05	4.03082e-05	6.49408e-05	0.000161554	0.439027	0.23236	8.22435	7.64831e-07	8.28182e-07	5.61923e-07	8.35067e-07	3.91583e-07	1.29901e-06	0.0828838	0.045956	0.0947717	29.0068	731.25	1318.84	1508	-60.9932	0.0000000E+000	0.0000000E+000	0.0000000E+000	60.9932	0.0000000E+000	0.0000000E+000	0.0000000E+000	-60.9932	0.0000000E+000	0.0000000E+000	0.0000000E+000	-29.0068	0.0000000E+000	0.0000000E+000	0.0000000E+000	29.0068	1.80355	60.9932	-2.1043e-06
6307.74	9.77645	7.59403	12.3793	-37.8389	30.4528	0.334382	-0.00721716	3.32257	1.25033	1	38	0.00489944	0.000395775	0	-2.88886e-05	4.49588	4.80472	82.6504	0.000103439	7.23807e-05	2.22209e-05	0.00011476	8.55796e-05	8.8523e-05	0.342846	0.39699	9.45622	4.25748e-07	3.12805e-07	6.28242e-07	7.81924e-07	3.27883e-07	5.36472e-07	0.0637949	0.0495538	0.0807797	37.8389	1250.33	1609.65	2038.21	-52.1611	0.0000000E+000	0.0000000E+000	0.0000000E+000	52.1611	0.0000000E+000	0.0000000E+000	0.0000000E+000	-52.1611	0.0000000E+000	0.0000000E+000	0.0000000E+000	-37.8389	0.0000000E+000	0.0000000E+000	0.0000000E+000	37.8389	1.28739	52.1611	-1.78725e-06
3981.28	10.4852	11.1861	15.332	-46.8523	31.9519	0.33444	-0.00616703	3.57371	1.90231	1	38	0.00493465	0.000321854	0	-3.17032e-05	3.69964	1.83274	80.3259	1.7409e-05	8.84583e-05	7.70974e-05	0.000109107	7.54317e-05	3.3646e-05	0.50802	0.239205	11.8754	3.43587e-07	4.30131e-07	5.73014e-07	1.10747e-06	5.81116e-07	4.89468e-07	0.0446049	0.0475864	0.0652232	46.8523	1902.31	1783.12	2607.35	-43.1477	0.0000000E+000	0.0000000E+000	0.0000000E+000	43.1477	0.0000000E+000	0.0000000E+000	0.0000000E+000	-43.1477	0.0000000E+000	0.0000000E+000	0.0000000E+000	-46.8523	0.0000000E+000	0.0000000E+000	0.0000000E+000	46.8523	0.937346	43.1477	-1.07061e-06
2512.41	11.4976	17.0319	20.5495	-55.9782	33.4378	0.334389	-0.00569038	3.71935	2.55501	1	38	0.00483674	0.000235371	0	-3.45108e-05	3.82119	2.70882	83.9657	7.94488e-05	4.46985e-05	4.13745e-05	9.62539e-05	7.18055e-05	4.74968e-05	0.685324	0.309226	16.4346	7.35591e-07	7.60703e-07	4.86266e-07	5.57884e-07	5.67423e-07	6.07866e-07	0.0272274	0.0403332	0.0486631	55.9782	2555.01	1724.79	3082.69	-34.0218	0.0000000E+000	0.0000000E+000	0.0000000E+000	34.0218	0.0000000E+000	0.0000000E+000	0.0000000E+000	-34.0218	0.0000000E+000	0.0000000E+000	0.0000000E+000	-55.9782	0.0000000E+000	0.0000000E+000	0.0000000E+000	55.9782	0.675062	34.0218	-1.56841e-06
1584.49	13.6403	25.3005	28.7432	-61.6695	34.925	0.334408	-0.00642957	3.9701	3.07601	1	38	0.00476245	0.00016569	0	-3.73715e-05	2.98093	2.49017	85.2657	4.14182e-05	9.85422e-05	2.45778e-05	3.01105e-05	6.10048e-05	2.85216e-05	1.21698	0.682964	22.7655	7.29611e-07	9.48034e-07	5.86132e-07	1.09148e-06	5.45681e-07	5.29575e-07	0.0165102	0.0306238	0.0347908	61.6695	3076.01	1658.38	3494.58	-28.3305	0.0000000E+000	0.0000000E+000	0.0000000E+000	28.3305	0.0000000E+000	0.0000000E+000	0.0000000E+000	-28.3305	0.0000000E+000	0.0000000E+000	0.0000000E+000	-61.6695	0.0000000E+000	0.0000000E+000	0.0000000E+000	61.6695	0.539131	28.3305	-1.48494e-06
999.682	16.2907	38.2003	41.5289	-66.904	36.665	0.33442	-0.000528227	4.16765	3.52634	1	39	0.005128	0.00012348	0	-3.83428e-05	3.48262	2.05644	77.0748	6.18655e-05	0.000121917	6.81442e-05	4.48479e-05	6.36777e-05	3.38657e-05	0.860391	0.492381	14.3613	4.60158e-07	5.88279e-07	4.55435e-07	3.69708e-07	3.21192e-07	2.85804e-07	0.00944579	0.0221496	0.0240796	66.904	3526.34	1503.82	3833.61	-23.096	0.0000000E+000	0.0000000E+000	0.0000000E+000	23.096	0.0000000E+000	0.0000000E+000	0.0000000E+000	-23.096	0.0000000E+000	0.0000000E+000	0.0000000E+000	-66.904	0.0000000E+000	0.0000000E+000	0.0000000E+000	66.904	0.426454	23.096	-2.22131e-07
631.01	19.7038	56.8141	60.1339	-70.8728	38.1507	0.33438	-0.000891854	4.43944	3.9628	1	39	0.00482599	8.02542e-05	0	-3.85251e-05	5.00928	2.01041	80.4453	4.06096e-05	8.0811e-05	0.000109526	0.000121768	0.000111753	8.78745e-05	1.2975	0.809251	21.1943	5.45576e-07	4.35978e-07	3.24384e-07	4.4742e-07	3.3523e-07	2.57885e-07	0.00544894	0.0157115	0.0166296	70.8728	3962.8	1374.35	4194.35	-19.1272	0.0000000E+000	0.0000000E+000	0.0000000E+000	19.1272	0.0000000E+000	0.0000000E+000	0.0000000E+000	-19.1272	0.0000000E+000	0.0000000E+000	0.0000000E+000	-70.8728	0.0000000E+000	0.0000000E+000	0.0000000E+000	70.8728	0.346812	19.1272	-1.49511e-07
398.089	27.8451	82.005	86.6035	-71.2449	39.6389	0.334328	-0.000834263	4.87528	4.37129	1	39	0.00463111	5.34749e-05	0	-3.87842e-05	3.65174	4.49669	84.5431	5.99435e-05	5.67895e-05	3.4749e-05	3.01732e-05	9.57177e-05	8.33946e-05	1.75419	1.43912	34.1434	3.70616e-07	5.44344e-07	2.64721e-07	2.57972e-07	3.16954e-07	4.27122e-07	0.0037126	0.0109338	0.0115469	71.2449	4371.29	1484.29	4616.41	-18.7551	0.0000000E+000	0.0000000E+000	0.0000000E+000	18.7551	0.0000000E+000	0.0000000E+000	0.0000000E+000	-18.7551	0.0000000E+000	0.0000000E+000	0.0000000E+000	-71.2449	0.0000000E+000	0.0000000E+000	0.0000000E+000	71.2449	0.339554	18.7551	-1.07223e-07
251.206	37.6679	123.532	129.148	-73.0423	41.124	0.334363	-0.000514437	5.12872	4.69243	1	39	0.0046351	3.58899e-05	0	-3.89604e-05	3.57293	2.25159	84.1855	6.0271e-05	7.71497e-05	3.89693e-05	4.56242e-05	5.8295e-05	7.41831e-05	2.69697	1.13247	49.2518	3.52111e-07	1.65244e-07	4.39265e-07	4.59035e-07	3.62388e-07	4.64787e-07	0.00225838	0.0074064	0.00774307	73.0423	4692.43	1430.83	4905.73	-16.9577	0.0000000E+000	0.0000000E+000	0.0000000E+000	16.9577	0.0000000E+000	0.0000000E+000	0.0000000E+000	-16.9577	0.0000000E+000	0.0000000E+000	0.0000000E+000	-73.0423	0.0000000E+000	0.0000000E+000	0.0000000E+000	73.0423	0.304923	16.9577	-1.1216e-07
158.529	49.7692	188.187	194.657	-75.1863	42.6168	0.334379	-0.000478279	5.33483	4.98609	1	39	0.00465532	2.39155e-05	0	-3.9069e-05	4.47562	2.81284	84.8547	9.36725e-05	9.76673e-05	8.89055e-05	3.63924e-05	8.86426e-05	6.62498e-05	3.51196	2.49485	75.7829	1.01221e-07	2.41391e-07	3.25172e-07	1.99586e-07	6.39659e-07	1.88861e-07	0.00131347	0.00496648	0.00513723	75.1863	4986.09	1318.65	5157.52	-14.8137	0.0000000E+000	0.0000000E+000	0.0000000E+000	14.8137	0.0000000E+000	0.0000000E+000	0.0000000E+000	-14.8137	0.0000000E+000	0.0000000E+000	0.0000000E+000	-75.1863	0.0000000E+000	0.0000000E+000	0.0000000E+000	75.1863	0.264466	14.8137	-2.66872e-08
99.9682	74.7327	276.7	286.615	-74.8859	44.341	0.33429	-1.22405e-05	5.75372	5.36254	1	40	0.00472118	1.64722e-05	0	-3.91146e-05	5.69862	3.14118	91.6566	0.000126677	8.83577e-05	0.000127391	9.48424e-05	8.77695e-05	9.22627e-05	1.02376	0.518105	19.6064	8.9808e-08	3.82766e-08	4.50946e-08	8.64148e-08	6.93694e-08	5.36938e-08	0.000909733	0.00336831	0.003489	74.8859	5362.54	1448.35	5554.69	-15.1141	0.0000000E+000	0.0000000E+000	0.0000000E+000	15.1141	0.0000000E+000	0.0000000E+000	0.0000000E+000	-15.1141	0.0000000E+000	0.0000000E+000	0.0000000E+000	-74.8859	0.0000000E+000	0.0000000E+000	0.0000000E+000	74.8859	0.270086	15.1141	-1.78947e-08