File: Python/Data/GoldElectrode/240319/Carbon/240319-CVEIS_Activation-0p5H2SO4-Ag_AgCl_BLF8-GC_RDE-80cycles_10_PEIS_C15.mpt
EC-Lab ASCII FILE
Nb header lines : 66

Potentio Electrochemical Impedance Spectroscopy

Run on channel : 15 (SN 19485)
User :
Electrode connection : standard
Potential control : Ewe
Ewe ctrl range : min = -2.50 V, max = 2.50 V
Ewe,I filtering : 50 kHz
Safety Limits :
	Do not start on E overload
Channel : Floating
Acquisition started on : 03/19/2024 14:45:18.810
Loaded Setting File :  C:\Data\mathias\GoldElectrode\240313-CVEIS_Activation-0p5H2SO4-Ag_AgCl_BLF8-Au_RDE-80cycles.mps
Saved on :
	File : 240319-CVEIS_Activation-0p5H2SO4-Ag_AgCl_BLF8-GC_RDE-80cycles_10_PEIS_C15.mpr
	Directory : C:\Data\mathias\GoldElectrode\
	Host : 192.168.0.1
Device : VMP-300 (SN 0826)
Address : USB
EC-Lab for windows v11.52 (software)
Internet server v11.52 (firmware)
Command interpretor v11.52 (firmware)
Electrode material :
Initial state :
Electrolyte :
Comments :
Cable : special
Electrode surface area : 0.001 cm²
Characteristic mass : 0.001 g
Equivalent Weight : 0.000 g/eq.
Density : 0.000 g/cm3
Volume (V) : 0.001 cm³
Record EIS quality indicators
Cycle Definition : Charge/Discharge alternance
Mode                Single sine
E (V)               0.0000
vs.                 Eoc
tE (h:m:s)          0:00:0.0000
record              0
dI                  0.000
unit dI             mA
dt (s)              0.000
fi                  100.000
unit fi             kHz
ff                  100.000
unit ff             Hz
Nd                  10
Points              per decade
spacing             Logarithmic
Va (mV)             5.0
pw                  0.10
Na                  2
corr                0
E range min (V)     -2.500
E range max (V)     2.500
I Range             Auto
Bandwidth           8
nc cycles           0
goto Ns'            0
nr cycles           0
inc. cycle          0

freq/Hz	Re(Z)/Ohm	-Im(Z)/Ohm	|Z|/Ohm	Phase(Z)/deg	time/s	<Ewe>/V	<I>/mA	Cs/µF	Cp/µF	cycle number	I Range	|Ewe|/V	|I|/A	Ns	(Q-Qo)/mA.h	THD Ewe/%	NSD Ewe/%	NSR Ewe/%	|Ewe h2|/V	|Ewe h3|/V	|Ewe h4|/V	|Ewe h5|/V	|Ewe h6|/V	|Ewe h7|/V	THD I/%	NSD I/%	NSR I/%	|I h2|/A	|I h3|/A	|I h4|/A	|I h5|/A	|I h6|/A	|I h7|/A	Re(Y)/Ohm-1	Im(Y)/Ohm-1	|Y|/Ohm-1	Phase(Y)/deg	Re(C)/nF	Im(C)/nF	|C|/nF	Phase(C)/deg	Re(M)	Im(M)	|M|	Phase(M)/deg	Re(Permittivity)	Im(Permittivity)	|Permittivity|	Phase(Permittivity)/deg	Re(Resistivity)/Ohm.cm	Im(Resistivity)/Ohm.cm	|Resistivity|/Ohm.cm	Phase(Resistivity)/deg	Re(Conductivity)/mS/cm	Im(Conductivity)/mS/cm	|Conductivity|/mS/cm	Phase(Conductivity)/deg	Tan(Delta)	Loss Angle(Delta)/deg	dq/mA.h
100004	7.91491	0.801883	7.95542	-5.78507	1550.8	0.334438	-0.0204686	1.98469	0.0201645	1	38	0.00488832	0.000614464	0	-6.37295e-06	2.91591	1.63163	83.439	5.08749e-05	4.05998e-05	6.28593e-05	7.19704e-05	4.693e-05	4.02196e-05	0.36436	0.182249	6.14539	6.221e-07	9.56871e-07	8.30847e-07	5.71313e-07	1.29373e-06	8.94472e-07	0.12506	0.0126702	0.1257	5.78507	20.1646	199.032	200.051	-84.2149	0.0000000E+000	0.0000000E+000	0.0000000E+000	84.2149	0.0000000E+000	0.0000000E+000	0.0000000E+000	-84.2149	0.0000000E+000	0.0000000E+000	0.0000000E+000	-5.78507	0.0000000E+000	0.0000000E+000	0.0000000E+000	5.78507	9.8704	84.2149	-6.37295e-06
63093.8	7.93618	0.765893	7.97305	-5.51235	1552.42	0.334423	-0.0108535	3.29356	0.0303915	1	38	0.00535237	0.000671308	0	-1.21253e-05	4.23776	4.62561	74.3817	0.000119413	6.58402e-05	9.93853e-05	8.39651e-05	7.29365e-05	7.1943e-05	0.250774	0.287995	5.71928	7.13476e-07	7.87518e-07	5.4559e-07	6.73341e-07	5.26566e-07	6.98585e-07	0.124842	0.0120481	0.125423	5.51235	30.3915	314.917	316.38	-84.4877	0.0000000E+000	0.0000000E+000	0.0000000E+000	84.4877	0.0000000E+000	0.0000000E+000	0.0000000E+000	-84.4877	0.0000000E+000	0.0000000E+000	0.0000000E+000	-5.51235	0.0000000E+000	0.0000000E+000	0.0000000E+000	5.51235	10.362	84.4877	-2.89683e-06
39814.1	8.0532	0.851988	8.09814	-6.03915	1554.05	0.334481	-0.0109056	4.69191	0.0519334	1	38	0.00516741	0.000638099	0	-1.70465e-05	4.08491	2.1407	78.0495	4.74751e-05	3.80253e-05	0.000123068	0.000103612	2.84585e-05	0.000107858	0.407826	0.234469	5.92528	1.08195e-06	9.42133e-07	1.267e-06	1.21987e-06	1.05694e-06	4.5333e-07	0.1228	0.0129916	0.123485	6.03915	51.9334	490.887	493.626	-83.9609	0.0000000E+000	0.0000000E+000	0.0000000E+000	83.9609	0.0000000E+000	0.0000000E+000	0.0000000E+000	-83.9609	0.0000000E+000	0.0000000E+000	0.0000000E+000	-6.03915	0.0000000E+000	0.0000000E+000	0.0000000E+000	6.03915	9.45224	83.9609	-1.45926e-06
25116.9	8.14765	1.01846	8.21105	-7.12504	1555.68	0.334434	-0.00973821	6.22172	0.0957193	1	38	0.00516896	0.000629513	0	-2.33076e-05	4.68508	2.36485	77.892	0.000120417	7.12573e-05	8.38879e-05	9.62326e-05	4.66722e-05	0.000103093	0.304362	0.201987	6.07382	1.07484e-06	4.56192e-07	5.85432e-07	4.67976e-07	7.44925e-07	7.27876e-07	0.120847	0.0151059	0.121787	7.12504	95.7194	765.753	771.712	-82.875	0.0000000E+000	0.0000000E+000	0.0000000E+000	82.875	0.0000000E+000	0.0000000E+000	0.0000000E+000	-82.875	0.0000000E+000	0.0000000E+000	0.0000000E+000	-7.12504	0.0000000E+000	0.0000000E+000	0.0000000E+000	7.12504	7.99998	82.875	-2.65932e-06
15847.7	8.28062	1.28482	8.3797	-8.81964	1557.31	0.334412	-0.010779	7.81653	0.183754	1	38	0.00518063	0.000618236	0	-2.97135e-05	3.98819	1.51988	76.3588	8.46673e-05	6.03016e-05	0.00014748	2.2908e-05	4.63766e-05	7.94628e-05	0.251188	0.176009	6.13479	7.55556e-07	4.78542e-07	4.94648e-07	4.76746e-07	5.65682e-07	6.19216e-07	0.117925	0.0182971	0.119336	8.81964	183.754	1184.3	1198.47	-81.1804	0.0000000E+000	0.0000000E+000	0.0000000E+000	81.1804	0.0000000E+000	0.0000000E+000	0.0000000E+000	-81.1804	0.0000000E+000	0.0000000E+000	0.0000000E+000	-8.81964	0.0000000E+000	0.0000000E+000	0.0000000E+000	8.81964	6.44499	81.1804	-3.07619e-06
10002.2	8.58096	1.68194	8.74425	-11.0899	1558.94	0.334433	-0.0102987	9.46046	0.350018	1	38	0.0051162	0.000585093	0	-3.52646e-05	3.75379	2.71868	79.3819	3.5845e-05	0.000122794	6.20357e-05	6.67319e-05	5.06108e-05	4.71455e-05	0.331898	0.203128	6.52777	1.24266e-06	6.236e-07	7.80723e-07	5.78608e-07	4.82184e-07	5.19271e-07	0.112225	0.0219972	0.114361	11.0899	350.018	1785.73	1819.71	-78.9101	0.0000000E+000	0.0000000E+000	0.0000000E+000	78.9101	0.0000000E+000	0.0000000E+000	0.0000000E+000	-78.9101	0.0000000E+000	0.0000000E+000	0.0000000E+000	-11.0899	0.0000000E+000	0.0000000E+000	0.0000000E+000	11.0899	5.10181	78.9101	-2.63534e-06
6307.74	8.61055	2.35142	8.92585	-15.2743	1560.68	0.334238	-0.010874	10.7304	0.744695	1	38	0.00508713	0.000569932	0	-4.07794e-05	4.32803	2.14878	77.6017	6.32775e-05	9.38223e-05	0.000125869	9.94585e-05	4.57894e-05	6.50812e-05	0.355095	0.213169	6.59534	6.78262e-07	6.0681e-07	1.38459e-06	5.29327e-07	4.67945e-07	8.07822e-07	0.108077	0.0295142	0.112034	15.2743	744.695	2726.96	2826.81	-74.7257	0.0000000E+000	0.0000000E+000	0.0000000E+000	74.7257	0.0000000E+000	0.0000000E+000	0.0000000E+000	-74.7257	0.0000000E+000	0.0000000E+000	0.0000000E+000	-15.2743	0.0000000E+000	0.0000000E+000	0.0000000E+000	15.2743	3.66185	74.7257	-2.50435e-06
3981.28	8.97614	3.54507	9.65083	-21.5512	1562.41	0.334309	-0.010483	11.2765	1.52157	1	38	0.00510844	0.000529326	0	-4.49704e-05	4.25982	2.54289	76.6221	8.29456e-05	7.78497e-05	7.14498e-05	0.000113264	4.72236e-05	0.00011131	0.348448	0.116911	7.29742	8.07869e-07	4.82004e-07	6.52277e-07	9.84147e-07	5.72058e-07	7.66107e-07	0.096374	0.0380623	0.103618	21.5512	1521.57	3852.63	4142.22	-68.4488	0.0000000E+000	0.0000000E+000	0.0000000E+000	68.4488	0.0000000E+000	0.0000000E+000	0.0000000E+000	-68.4488	0.0000000E+000	0.0000000E+000	0.0000000E+000	-21.5512	0.0000000E+000	0.0000000E+000	0.0000000E+000	21.5512	2.53201	68.4488	-2.07133e-06
2512.41	9.23127	4.92862	10.4646	-28.098	1563.89	0.334324	-0.00880166	12.853	2.85109	1	38	0.00519615	0.000496546	0	-4.89731e-05	3.3684	6.41381	76.8431	6.49536e-05	5.21707e-05	9.32632e-05	2.69163e-05	0.000102891	3.55206e-05	0.441767	0.636564	7.60218	8.16694e-07	5.22741e-07	1.12994e-06	1.08056e-06	8.49526e-07	7.11391e-07	0.084298	0.0450071	0.0955604	28.098	2851.09	5340.07	6053.51	-61.902	0.0000000E+000	0.0000000E+000	0.0000000E+000	61.902	0.0000000E+000	0.0000000E+000	0.0000000E+000	-61.902	0.0000000E+000	0.0000000E+000	0.0000000E+000	-28.098	0.0000000E+000	0.0000000E+000	0.0000000E+000	28.098	1.87299	61.902	-2.33873e-06
1584.49	9.85805	7.15196	12.1792	-35.9607	1565.38	0.334349	-0.00821143	14.0445	4.84307	1	38	0.00524372	0.000430549	0	-5.23275e-05	3.525	1.96619	75.0944	8.70042e-05	3.29222e-05	9.61015e-05	6.31799e-05	7.64801e-05	4.12112e-05	0.348051	0.196923	8.94703	1.00762e-06	6.92049e-07	3.2026e-07	3.28714e-07	4.95705e-07	4.6065e-07	0.0664595	0.048216	0.0821075	35.9607	4843.07	6675.55	8247.32	-54.0393	0.0000000E+000	0.0000000E+000	0.0000000E+000	54.0393	0.0000000E+000	0.0000000E+000	0.0000000E+000	-54.0393	0.0000000E+000	0.0000000E+000	0.0000000E+000	-35.9607	0.0000000E+000	0.0000000E+000	0.0000000E+000	35.9607	1.37837	54.0394	-1.86569e-06
999.682	10.0855	11.0256	14.9426	-47.5498	1567.09	0.334369	-0.00874209	14.4396	7.86156	1	38	0.00482736	0.000323061	0	-5.64214e-05	5.78133	6.84075	83.3362	0.000142885	8.60721e-05	7.67379e-05	8.6767e-05	0.000161127	8.30593e-05	0.766083	0.751342	11.7761	7.12949e-07	1.50989e-06	1.27141e-06	8.52184e-07	4.61915e-07	7.95892e-07	0.0451695	0.0493799	0.0669228	47.5498	7861.56	7191.23	10654.5	-42.4502	0.0000000E+000	0.0000000E+000	0.0000000E+000	42.4502	0.0000000E+000	0.0000000E+000	0.0000000E+000	-42.4502	0.0000000E+000	0.0000000E+000	0.0000000E+000	-47.5498	0.0000000E+000	0.0000000E+000	0.0000000E+000	47.5498	0.914733	42.4502	-1.93249e-06
631.01	11.3206	16.3781	19.9098	-55.3476	1568.57	0.334311	-0.00481527	15.4	10.4211	1	38	0.00484084	0.000243139	0	-5.90836e-05	4.87586	2.63929	83.8357	3.68981e-05	0.000113513	6.30829e-05	0.000115594	9.4715e-05	9.23648e-05	0.909685	0.295763	16.1936	1.0773e-06	9.41051e-07	9.64907e-07	8.46261e-07	3.63282e-07	6.3183e-07	0.0285586	0.0413172	0.0502265	55.3476	10421.1	7203.13	12668.3	-34.6524	0.0000000E+000	0.0000000E+000	0.0000000E+000	34.6524	0.0000000E+000	0.0000000E+000	0.0000000E+000	-34.6524	0.0000000E+000	0.0000000E+000	0.0000000E+000	-55.3476	0.0000000E+000	0.0000000E+000	0.0000000E+000	55.3476	0.691205	34.6524	-1.08571e-06
398.089	12.2686	24.2119	27.1429	-63.1278	1570.31	0.334359	-0.000489457	16.5124	13.1388	1	39	0.00489925	0.000180498	0	-6.102e-05	8.01857	2.95117	80.0193	8.89138e-05	0.000150138	7.85712e-05	9.34052e-05	0.000168506	0.00027089	0.576657	0.28864	9.25365	4.16041e-07	5.26482e-07	1.62702e-07	2.43979e-07	3.7056e-07	5.9467e-07	0.0166527	0.0328637	0.036842	63.1278	13138.8	6657.69	14729.3	-26.8722	0.0000000E+000	0.0000000E+000	0.0000000E+000	26.8722	0.0000000E+000	0.0000000E+000	0.0000000E+000	-26.8722	0.0000000E+000	0.0000000E+000	0.0000000E+000	-63.1278	0.0000000E+000	0.0000000E+000	0.0000000E+000	63.1278	0.506718	26.8722	-6.03341e-07
251.206	13.8607	37.8347	40.2937	-69.8798	1571.8	0.334324	-0.000532327	16.7456	14.7641	1	39	0.00488085	0.000121132	0	-6.14189e-05	4.09929	2.26012	79.8859	4.93277e-05	8.71195e-05	0.000109208	9.90429e-05	5.94553e-05	4.62697e-05	0.984665	0.426038	14.8529	2.75756e-07	3.5856e-07	4.7769e-07	7.04598e-07	5.51257e-07	3.7358e-07	0.0085371	0.0233032	0.0248178	69.8798	14764.1	5408.8	15723.6	-20.1202	0.0000000E+000	0.0000000E+000	0.0000000E+000	20.1202	0.0000000E+000	0.0000000E+000	0.0000000E+000	-20.1202	0.0000000E+000	0.0000000E+000	0.0000000E+000	-69.8798	0.0000000E+000	0.0000000E+000	0.0000000E+000	69.8798	0.366348	20.1202	-2.5518e-07
158.529	17.4678	56.8319	59.4557	-72.9147	1573.29	0.33427	-0.000216043	17.6652	16.1405	1	39	0.00479045	8.05718e-05	0	-6.15693e-05	3.44294	2.12517	79.8183	4.5304e-05	6.78411e-05	3.35096e-05	6.89957e-05	8.09005e-05	8.5267e-05	1.15347	0.676937	21.5938	2.43747e-07	4.88722e-07	3.65392e-07	4.82239e-07	2.69855e-07	3.0688e-07	0.0049414	0.016077	0.0168192	72.9147	16140.5	4960.91	16885.6	-17.0853	0.0000000E+000	0.0000000E+000	0.0000000E+000	17.0853	0.0000000E+000	0.0000000E+000	0.0000000E+000	-17.0853	0.0000000E+000	0.0000000E+000	0.0000000E+000	-72.9147	0.0000000E+000	0.0000000E+000	0.0000000E+000	72.9147	0.307358	17.0853	1.23252e-08
99.9682	20.9699	87.607	90.0817	-76.5387	1574.76	0.33436	-0.000449763	18.1727	17.1879	1	39	0.00479076	5.31823e-05	0	-6.18735e-05	5.59528	3.42992	79.323	7.61038e-05	0.000148611	9.06705e-05	9.61905e-05	0.000118558	7.26489e-05	1.89459	0.556038	32.2992	2.20085e-07	6.27789e-07	4.6692e-07	2.48049e-07	4.28054e-07	1.98559e-07	0.00258419	0.0107961	0.011101	76.5387	17187.9	4114.17	17673.5	-13.4613	0.0000000E+000	0.0000000E+000	0.0000000E+000	13.4613	0.0000000E+000	0.0000000E+000	0.0000000E+000	-13.4613	0.0000000E+000	0.0000000E+000	0.0000000E+000	-76.5387	0.0000000E+000	0.0000000E+000	0.0000000E+000	76.5387	0.239364	13.4613	-1.00605e-07