File: Python/Data/GoldElectrode/240319/Carbon/240319-CVEIS_Activation-0p5H2SO4-Ag_AgCl_BLF8-GC_RDE-80cycles_06_PEIS_C15.mpt
EC-Lab ASCII FILE
Nb header lines : 66

Potentio Electrochemical Impedance Spectroscopy

Run on channel : 15 (SN 19485)
User :
Electrode connection : standard
Potential control : Ewe
Ewe ctrl range : min = -2.50 V, max = 2.50 V
Ewe,I filtering : 50 kHz
Safety Limits :
	Do not start on E overload
Channel : Floating
Acquisition started on : 03/19/2024 14:45:18.810
Loaded Setting File :  C:\Data\mathias\GoldElectrode\240313-CVEIS_Activation-0p5H2SO4-Ag_AgCl_BLF8-Au_RDE-80cycles.mps
Saved on :
	File : 240319-CVEIS_Activation-0p5H2SO4-Ag_AgCl_BLF8-GC_RDE-80cycles_06_PEIS_C15.mpr
	Directory : C:\Data\mathias\GoldElectrode\
	Host : 192.168.0.1
Device : VMP-300 (SN 0826)
Address : USB
EC-Lab for windows v11.52 (software)
Internet server v11.52 (firmware)
Command interpretor v11.52 (firmware)
Electrode material :
Initial state :
Electrolyte :
Comments :
Cable : special
Electrode surface area : 0.001 cm²
Characteristic mass : 0.001 g
Equivalent Weight : 0.000 g/eq.
Density : 0.000 g/cm3
Volume (V) : 0.001 cm³
Record EIS quality indicators
Cycle Definition : Charge/Discharge alternance
Mode                Single sine
E (V)               0.0000
vs.                 Eoc
tE (h:m:s)          0:00:0.0000
record              0
dI                  0.000
unit dI             mA
dt (s)              0.000
fi                  100.000
unit fi             kHz
ff                  100.000
unit ff             Hz
Nd                  10
Points              per decade
spacing             Logarithmic
Va (mV)             5.0
pw                  0.10
Na                  2
corr                0
E range min (V)     -2.500
E range max (V)     2.500
I Range             Auto
Bandwidth           8
nc cycles           0
goto Ns'            0
nr cycles           0
inc. cycle          0

freq/Hz	Re(Z)/Ohm	-Im(Z)/Ohm	|Z|/Ohm	Phase(Z)/deg	time/s	<Ewe>/V	<I>/mA	Cs/µF	Cp/µF	cycle number	I Range	|Ewe|/V	|I|/A	Ns	(Q-Qo)/mA.h	THD Ewe/%	NSD Ewe/%	NSR Ewe/%	|Ewe h2|/V	|Ewe h3|/V	|Ewe h4|/V	|Ewe h5|/V	|Ewe h6|/V	|Ewe h7|/V	THD I/%	NSD I/%	NSR I/%	|I h2|/A	|I h3|/A	|I h4|/A	|I h5|/A	|I h6|/A	|I h7|/A	Re(Y)/Ohm-1	Im(Y)/Ohm-1	|Y|/Ohm-1	Phase(Y)/deg	Re(C)/nF	Im(C)/nF	|C|/nF	Phase(C)/deg	Re(M)	Im(M)	|M|	Phase(M)/deg	Re(Permittivity)	Im(Permittivity)	|Permittivity|	Phase(Permittivity)/deg	Re(Resistivity)/Ohm.cm	Im(Resistivity)/Ohm.cm	|Resistivity|/Ohm.cm	Phase(Resistivity)/deg	Re(Conductivity)/mS/cm	Im(Conductivity)/mS/cm	|Conductivity|/mS/cm	Phase(Conductivity)/deg	Tan(Delta)	Loss Angle(Delta)/deg	dq/mA.h
100004	8.03739	0.898681	8.08748	-6.37988	776.66	0.334453	-0.0202135	1.77092	0.0218667	1	38	0.0047885	0.000592088	0	-5.80726e-06	3.82505	1.87266	84.2727	5.67837e-06	8.8663e-05	4.61833e-05	0.000118639	8.13265e-05	3.56091e-05	0.270597	0.173181	6.57389	5.65866e-07	7.18095e-07	8.31946e-07	4.81022e-07	6.9802e-07	3.17297e-07	0.122882	0.0137398	0.123648	6.37988	21.8667	195.566	196.784	-83.6201	0.0000000E+000	0.0000000E+000	0.0000000E+000	83.6201	0.0000000E+000	0.0000000E+000	0.0000000E+000	-83.6201	0.0000000E+000	0.0000000E+000	0.0000000E+000	-6.37988	0.0000000E+000	0.0000000E+000	0.0000000E+000	6.37988	8.94355	83.6201	-5.80726e-06
63093.8	7.98551	0.899132	8.03597	-6.42418	778.287	0.334494	-0.0102018	2.8055	0.035122	1	38	0.00507635	0.000631704	0	-1.09521e-05	4.76093	1.64687	78.8446	9.4816e-05	8.13359e-05	9.84026e-05	9.46766e-05	0.000108886	4.58818e-05	0.296931	0.209502	5.98956	7.32454e-07	7.62415e-07	8.00477e-07	4.32828e-07	7.11431e-07	5.59818e-07	0.123659	0.0139234	0.12444	6.42418	35.122	311.931	313.903	-83.5758	0.0000000E+000	0.0000000E+000	0.0000000E+000	83.5758	0.0000000E+000	0.0000000E+000	0.0000000E+000	-83.5758	0.0000000E+000	0.0000000E+000	0.0000000E+000	-6.42418	0.0000000E+000	0.0000000E+000	0.0000000E+000	6.42418	8.88136	83.5758	-2.857e-06
39814.1	8.03672	1.1003	8.11169	-7.79582	779.915	0.334394	-0.0103098	3.63307	0.0668452	1	38	0.00507618	0.000625785	0	-1.68675e-05	4.30898	2.54478	77.5572	0.000156523	0.000107516	2.88182e-05	2.48244e-05	6.0397e-05	6.95168e-05	0.361739	0.224662	6.06552	1.08052e-06	1.33649e-06	7.6897e-07	8.37114e-07	7.12572e-07	3.37617e-07	0.12214	0.0167219	0.123279	7.79582	66.8452	488.247	492.802	-82.2042	0.0000000E+000	0.0000000E+000	0.0000000E+000	82.2042	0.0000000E+000	0.0000000E+000	0.0000000E+000	-82.2042	0.0000000E+000	0.0000000E+000	0.0000000E+000	-7.79582	0.0000000E+000	0.0000000E+000	0.0000000E+000	7.79582	7.30415	82.2042	-3.60705e-06
25116.9	8.09145	1.35297	8.20378	-9.49258	781.544	0.3344	-0.0103154	4.68346	0.127383	1	38	0.00490877	0.000598355	0	-2.17576e-05	3.36416	3.73331	81.6404	5.69659e-05	9.34316e-05	5.06451e-05	9.0393e-05	2.11406e-05	5.56609e-05	0.318073	0.16749	6.30194	7.70823e-07	4.57873e-07	6.3455e-07	8.08336e-07	7.86126e-07	6.21098e-07	0.120226	0.0201029	0.121895	9.49258	127.383	761.819	772.396	-80.5074	0.0000000E+000	0.0000000E+000	0.0000000E+000	80.5074	0.0000000E+000	0.0000000E+000	0.0000000E+000	-80.5074	0.0000000E+000	0.0000000E+000	0.0000000E+000	-9.49258	0.0000000E+000	0.0000000E+000	0.0000000E+000	9.49258	5.98052	80.5074	-1.9512e-06
15847.7	8.55887	1.80414	8.74695	-11.9032	783.172	0.334433	-0.00960974	5.56652	0.236816	1	38	0.00518733	0.000593044	0	-2.5796e-05	3.22194	2.04577	76.324	5.83696e-05	4.67996e-05	2.20553e-05	7.6298e-05	8.80977e-05	8.0119e-05	0.299568	0.177915	6.46204	3.42522e-07	6.98898e-07	3.63458e-07	7.25207e-07	6.80274e-07	9.07147e-07	0.111867	0.0235807	0.114326	11.9032	236.816	1123.46	1148.15	-78.0968	0.0000000E+000	0.0000000E+000	0.0000000E+000	78.0968	0.0000000E+000	0.0000000E+000	0.0000000E+000	-78.0968	0.0000000E+000	0.0000000E+000	0.0000000E+000	-11.9032	0.0000000E+000	0.0000000E+000	0.0000000E+000	11.9032	4.74401	78.0968	-2.56276e-06
10002.2	8.89192	2.53818	9.24709	-15.9313	784.8	0.334411	-0.0102056	6.26903	0.47232	1	38	0.00519126	0.000561394	0	-3.0591e-05	3.62486	2.13106	75.4519	4.64061e-05	0.000110152	8.36377e-05	6.77282e-05	1.89453e-05	7.82742e-05	0.313198	0.202968	6.77295	7.21716e-07	7.38174e-07	7.99703e-07	5.38951e-07	7.65888e-07	4.38249e-07	0.103989	0.0296834	0.108142	15.9313	472.32	1654.66	1720.75	-74.0687	0.0000000E+000	0.0000000E+000	0.0000000E+000	74.0687	0.0000000E+000	0.0000000E+000	0.0000000E+000	-74.0687	0.0000000E+000	0.0000000E+000	0.0000000E+000	-15.9313	0.0000000E+000	0.0000000E+000	0.0000000E+000	15.9313	3.50326	74.0687	-2.19541e-06
6307.74	9.0637	3.45582	9.70017	-20.8709	786.551	0.334253	-0.0099542	7.30123	0.926699	1	38	0.00506928	0.000522597	0	-3.4777e-05	3.22718	2.58409	80.2053	3.0753e-05	6.78695e-05	6.1737e-05	9.25469e-05	7.55652e-05	4.77533e-05	0.381228	0.254804	7.32027	6.67316e-07	7.72607e-07	1.17352e-06	6.52506e-07	6.93756e-07	6.25865e-07	0.0963267	0.0367276	0.103091	20.8709	926.699	2430.49	2601.16	-69.1291	0.0000000E+000	0.0000000E+000	0.0000000E+000	69.1291	0.0000000E+000	0.0000000E+000	0.0000000E+000	-69.1291	0.0000000E+000	0.0000000E+000	0.0000000E+000	-20.8709	0.0000000E+000	0.0000000E+000	0.0000000E+000	20.8709	2.62274	69.1291	-2.54973e-06
3981.28	9.46472	5.06799	10.7362	-28.1673	788.272	0.33439	-0.0081053	7.88791	1.75766	1	38	0.00505076	0.000470443	0	-3.81349e-05	5.68532	1.87236	78.2226	3.48823e-05	0.000104032	7.1057e-05	0.000216948	0.000108518	6.34172e-05	0.58494	0.294677	7.98574	6.54921e-07	1.18276e-06	5.7246e-07	2.13463e-06	6.50459e-07	3.99005e-07	0.0821124	0.043968	0.0931431	28.1673	1757.66	3282.51	3723.47	-61.8327	0.0000000E+000	0.0000000E+000	0.0000000E+000	61.8327	0.0000000E+000	0.0000000E+000	0.0000000E+000	-61.8327	0.0000000E+000	0.0000000E+000	0.0000000E+000	-28.1673	0.0000000E+000	0.0000000E+000	0.0000000E+000	28.1673	1.86755	61.8327	-1.83027e-06
2512.41	10.2721	7.65854	12.8129	-36.7069	789.758	0.33438	-0.00828963	8.27149	2.95517	1	38	0.00525021	0.000409761	0	-4.16705e-05	3.57255	3.24274	74.3447	7.59692e-05	5.01708e-05	7.26829e-05	4.82018e-05	0.000106936	6.98854e-05	0.485125	0.609303	9.49451	6.81368e-07	8.86941e-07	6.7403e-07	6.73252e-07	9.29289e-07	4.73001e-07	0.0625702	0.0466501	0.0780465	36.7069	2955.17	3963.66	4944.05	-53.2931	0.0000000E+000	0.0000000E+000	0.0000000E+000	53.2931	0.0000000E+000	0.0000000E+000	0.0000000E+000	-53.2931	0.0000000E+000	0.0000000E+000	0.0000000E+000	-36.7069	0.0000000E+000	0.0000000E+000	0.0000000E+000	36.7069	1.34126	53.2931	-1.86758e-06
1584.49	10.88	10.9182	15.4137	-45.1004	791.245	0.334259	-0.00895435	9.19983	4.61604	1	38	0.0050511	0.000327703	0	-4.57444e-05	3.77819	3.00241	77.9851	5.15055e-05	0.000131624	4.1991e-05	5.22978e-05	7.36337e-05	7.45464e-05	0.636242	0.330548	11.7023	5.79883e-07	1.07438e-06	8.97352e-07	6.17212e-07	7.71844e-07	8.22807e-07	0.0457949	0.0459557	0.0648776	45.1004	4616.04	4599.88	6516.65	-44.8996	0.0000000E+000	0.0000000E+000	0.0000000E+000	44.8996	0.0000000E+000	0.0000000E+000	0.0000000E+000	-44.8996	0.0000000E+000	0.0000000E+000	0.0000000E+000	-45.1004	0.0000000E+000	0.0000000E+000	0.0000000E+000	45.1004	0.996501	44.8996	-2.099e-06
999.682	11.9762	16.1333	20.0926	-53.4125	792.731	0.334463	-0.00818165	9.86815	6.36223	1	38	0.0049599	0.000246852	0	-4.91211e-05	3.01334	2.6763	81.927	3.81205e-05	4.2295e-05	3.40792e-05	9.64026e-05	4.51556e-05	7.16656e-05	0.901269	0.546598	15.3816	6.85013e-07	8.72777e-07	8.79891e-07	1.26674e-06	2.4523e-07	9.5707e-07	0.0296652	0.0399623	0.0497696	53.4125	6362.23	4722.86	7923.6	-36.5875	0.0000000E+000	0.0000000E+000	0.0000000E+000	36.5875	0.0000000E+000	0.0000000E+000	0.0000000E+000	-36.5875	0.0000000E+000	0.0000000E+000	0.0000000E+000	-53.4125	0.0000000E+000	0.0000000E+000	0.0000000E+000	53.4125	0.742328	36.5875	-1.58958e-06
631.01	14.0263	24.3192	28.0742	-60.0255	794.217	0.334383	-0.00640536	10.3713	7.7825	1	38	0.0050024	0.000178185	0	-5.16838e-05	5.11713	2.04613	80.0656	6.03724e-05	0.000200823	8.33158e-05	3.30533e-05	7.31793e-05	5.14917e-05	1.32829	0.493348	21.3743	1.06556e-06	6.98036e-07	1.06486e-06	8.01741e-07	9.45601e-07	1.0063e-06	0.0177962	0.0308557	0.0356199	60.0255	7782.5	4488.6	8984.14	-29.9745	0.0000000E+000	0.0000000E+000	0.0000000E+000	29.9745	0.0000000E+000	0.0000000E+000	0.0000000E+000	-29.9745	0.0000000E+000	0.0000000E+000	0.0000000E+000	-60.0255	0.0000000E+000	0.0000000E+000	0.0000000E+000	60.0255	0.576756	29.9745	-1.01009e-06
398.089	16.4497	36.2896	39.8438	-65.6158	795.957	0.334364	-0.000541832	11.0169	9.13905	1	39	0.00510404	0.000128101	0	-5.22473e-05	2.97529	3.33877	77.5079	5.92063e-05	6.80015e-05	4.15583e-05	5.9907e-05	6.165e-05	5.55673e-05	0.750053	0.705216	13.7878	4.65303e-07	2.37108e-07	2.54195e-07	2.75662e-07	4.90395e-07	4.15022e-07	0.0103618	0.0228592	0.025098	65.6158	9139.05	4142.63	10034.1	-24.3842	0.0000000E+000	0.0000000E+000	0.0000000E+000	24.3842	0.0000000E+000	0.0000000E+000	0.0000000E+000	-24.3842	0.0000000E+000	0.0000000E+000	0.0000000E+000	-65.6158	0.0000000E+000	0.0000000E+000	0.0000000E+000	65.6158	0.453289	24.3842	-2.0011e-08
251.206	20.5716	53.7348	57.538	-69.0514	797.442	0.334323	-0.00067584	11.7906	10.2834	1	39	0.00496545	8.62986e-05	0	-5.24213e-05	3.78367	1.36397	76.8484	3.74769e-05	6.50688e-05	6.66692e-05	8.35991e-05	0.000116211	6.04613e-05	1.03488	0.424528	20.4385	3.73884e-07	4.87816e-07	3.21641e-07	1.7343e-07	2.36879e-07	4.20094e-07	0.00621382	0.016231	0.0173798	69.0514	10283.4	3936.85	11011.2	-20.9486	0.0000000E+000	0.0000000E+000	0.0000000E+000	20.9486	0.0000000E+000	0.0000000E+000	0.0000000E+000	-20.9486	0.0000000E+000	0.0000000E+000	0.0000000E+000	-69.0514	0.0000000E+000	0.0000000E+000	0.0000000E+000	69.0514	0.382836	20.9486	-1.39022e-07
158.529	25.0057	81.2132	84.9757	-72.8863	798.935	0.334349	-0.000343713	12.3619	11.2914	1	39	0.00493977	5.81316e-05	0	-5.25741e-05	3.55413	1.39644	78.6493	4.92644e-05	0.000112071	6.69444e-05	4.9725e-05	5.88682e-05	2.10975e-05	1.53593	0.826624	30.2364	4.95193e-07	1.87585e-07	4.15992e-07	2.5321e-07	3.80945e-07	1.67797e-07	0.00346298	0.011247	0.0117681	72.8863	11291.4	3476.65	11814.5	-17.1137	0.0000000E+000	0.0000000E+000	0.0000000E+000	17.1137	0.0000000E+000	0.0000000E+000	0.0000000E+000	-17.1137	0.0000000E+000	0.0000000E+000	0.0000000E+000	-72.8863	0.0000000E+000	0.0000000E+000	0.0000000E+000	72.8863	0.307902	17.1137	-9.69299e-08
99.9682	33.15	121.743	126.175	-74.7679	800.407	0.334301	-0.000638006	13.0772	12.1745	1	39	0.00491387	3.89448e-05	0	-5.28236e-05	2.84525	2.78521	77.2372	4.44264e-05	6.04959e-05	3.32611e-05	4.03556e-05	6.36919e-05	6.84252e-05	1.98556	1.46517	44.4155	2.90884e-07	3.0141e-07	4.38409e-07	1.86802e-07	3.00105e-07	2.6126e-07	0.00208226	0.00764705	0.00792548	74.7679	12174.5	3315.07	12617.8	-15.2321	0.0000000E+000	0.0000000E+000	0.0000000E+000	15.2321	0.0000000E+000	0.0000000E+000	0.0000000E+000	-15.2321	0.0000000E+000	0.0000000E+000	0.0000000E+000	-74.7679	0.0000000E+000	0.0000000E+000	0.0000000E+000	74.7679	0.272296	15.2321	-1.1276e-07