File: Python/ImpedanceDataOld/different flow rate_NIPS electrode_iron symmetric single-tank tests_0.5 M total iron_choose the cycle number=1/IDFF flow field/NoPattern_IDFF_ve=10 cms_EIS.mpt
EC-Lab ASCII FILE
Nb header lines : 66

Potentio Electrochemical Impedance Spectroscopy

Run on channel : 3 (SN 50730)
User :
CE vs. WE compliance from -10 V to 10 V
Electrode connection : standard
Potential control : Ewe
Ewe ctrl range : min = -10.00 V, max = 10.00 V
Safety Limits :
	Do not start on E overload
Acquisition started on : 02/14/2023 16:56:05.168
Loaded Setting File :  NONE
Saved on :
	File : NoPattern_IDFF_05Fe_2MHCL_ve10cms_EIS_PCGA_01_PEIS_C01_01_PEIS_C03.mpr
	Directory : C:\Users\sto063\Documents\EC-Lab\Data\Baichen\Micormolding\20230214_denseNoPatternS4_IDFF\
	Host : 131.155.90.158
Device : VSP-3e (SN .003050)
Address : USB
EC-Lab for windows v11.43 (software)
Internet server v11.40 (firmware)
Command interpretor v11.40 (firmware)
Electrode material :
Initial state :
Electrolyte :
Comments :
Electrode surface area : 0.001 cm2
Characteristic mass : 0.001 g
Equivalent Weight : 0.000 g/eq.
Density : 0.000 g/cm3
Volume (V) : 0.001 cm3
Cycle Definition : Charge/Discharge alternance
Mode                Single sine
E (V)               0.0000
vs.                 Eoc
tE (h:m:s)          0:00:0.0000
record              0
dI                  0.000
unit dI             mA
dt (s)              0.000
fi                  200.000
unit fi             kHz
ff                  4.000
unit ff             mHz
Nd                  8
Points              per decade
spacing             Logarithmic
Va (mV)             10.0
pw                  0.10
Na                  5
corr                0
E range min (V)     -10.000
E range max (V)     10.000
I Range             Auto
Bandwidth           5
nc cycles           0
goto Ns'            0
nr cycles           0
inc. cycle          0

Modify on : 02/14/2023 16:56
ff                  20.000

freq/Hz	Re(Z)/Ohm	-Im(Z)/Ohm	|Z|/Ohm	Phase(Z)/deg	time/s	<Ewe>/V	<I>/mA	Cs/uF	Cp/uF	cycle number	I Range	|Ewe|/V	|I|/A	Ns	(Q-Qo)/mA.h	Re(Y)/Ohm-1	Im(Y)/Ohm-1	|Y|/Ohm-1	Phase(Y)/deg	Re(C)/nF	Im(C)/nF	|C|/nF	Phase(C)/deg	Re(M)	Im(M)	|M|	Phase(M)/deg	Re(Permittivity)	Im(Permittivity)	|Permittivity|	Phase(Permittivity)/deg	Re(Resistivity)/Ohm.cm	Im(Resistivity)/Ohm.cm	|Resistivity|/Ohm.cm	Phase(Resistivity)/deg	Re(Conductivity)/mS/cm	Im(Conductivity)/mS/cm	|Conductivity|/mS/cm	Phase(Conductivity)/deg	Tan(Delta)	Loss Angle(Delta)/deg	dq/mA.h
199998	0.197216	-0.0740383	0.210655	20.577	1.73848	-0.000386223	-1.3038	-10.7483	-1.32772	1	9	0.000858422	0.004075	0	-0.000477082	4.44423	-1.66844	4.74709	-20.577	-1327.72	3536.64	3777.65	-110.577	0.0000000E+000	0.0000000E+000	0.0000000E+000	110.577	0.0000000E+000	0.0000000E+000	0.0000000E+000	-110.577	0.0000000E+000	0.0000000E+000	0.0000000E+000	20.577	0.0000000E+000	0.0000000E+000	0.0000000E+000	-20.577	-2.6637	-20.577	-0.000477082
83636.4	0.210878	-0.0270535	0.212607	7.31053	4.34748	-0.000464097	-1.79232	-70.3397	-1.13893	1	9	0.02306	0.108463	0	-0.00169595	4.66529	-0.598509	4.70352	-7.31053	-1138.93	8877.76	8950.51	-97.3105	0.0000000E+000	0.0000000E+000	0.0000000E+000	97.3105	0.0000000E+000	0.0000000E+000	0.0000000E+000	-97.3105	0.0000000E+000	0.0000000E+000	0.0000000E+000	7.31053	0.0000000E+000	0.0000000E+000	0.0000000E+000	-7.31053	-7.79485	-7.31053	-0.000543613
34970.7	0.213386	-0.00786541	0.213531	2.11097	8.32647	-0.000310995	-1.23628	-578.622	-0.785085	1	9	0.0092858	0.043487	0	-0.00299328	4.67999	-0.172505	4.68317	-2.11097	-785.085	21299.1	21313.5	-92.111	0.0000000E+000	0.0000000E+000	0.0000000E+000	92.111	0.0000000E+000	0.0000000E+000	0.0000000E+000	-92.111	0.0000000E+000	0.0000000E+000	0.0000000E+000	2.11097	0.0000000E+000	0.0000000E+000	0.0000000E+000	-2.11097	-27.1296	-2.11097	-0.000216385
14622.9	0.216882	7.45631e-05	0.216882	-0.0196981	10.7985	-0.000303204	-1.17365	145969	0.017253	1	9	0.0104619	0.0482381	0	-0.00379681	4.61081	0.00158518	4.61081	0.0196981	17.2539	50183.8	50183.8	-89.9803	0.0000000E+000	0.0000000E+000	0.0000000E+000	89.9803	0.0000000E+000	0.0000000E+000	0.0000000E+000	-89.9803	0.0000000E+000	0.0000000E+000	0.0000000E+000	-0.0196981	0.0000000E+000	0.0000000E+000	0.0000000E+000	0.0196981	2908.7	0.0196981	-0.000187883
6115.42	0.219681	0.00262882	0.219697	-0.6856	13.6917	-0.000305646	-1.08512	9899.92	1.41745	1	9	0.0102679	0.0467366	0	-0.00461594	4.5514	0.0544645	4.55172	0.6856	1417.45	118451	118459	-89.3144	0.0000000E+000	0.0000000E+000	0.0000000E+000	89.3144	0.0000000E+000	0.0000000E+000	0.0000000E+000	-89.3144	0.0000000E+000	0.0000000E+000	0.0000000E+000	-0.6856	0.0000000E+000	0.0000000E+000	0.0000000E+000	0.6856	83.5663	0.6856	-0.000291077
2567.54	0.220455	0.00285695	0.220473	-0.742474	17.4829	-0.000293698	-1.04337	21697.1	3.6433	1	9	0.0100048	0.0453786	0	-0.00572201	4.53532	0.0587748	4.5357	0.742474	3643.31	281133	281157	-89.2575	0.0000000E+000	0.0000000E+000	0.0000000E+000	89.2575	0.0000000E+000	0.0000000E+000	0.0000000E+000	-89.2575	0.0000000E+000	0.0000000E+000	0.0000000E+000	-0.742474	0.0000000E+000	0.0000000E+000	0.0000000E+000	0.742474	77.1644	0.742474	-0.000367447
1024.02	0.223781	0.00280936	0.223798	-0.719258	20.8299	-0.000294481	-1.07457	55323	8.7178	1	9	0.0104164	0.0465439	0	-0.00676327	4.46796	0.0560911	4.46831	0.719258	8717.84	694420	694475	-89.2807	0.0000000E+000	0.0000000E+000	0.0000000E+000	89.2807	0.0000000E+000	0.0000000E+000	0.0000000E+000	-89.2807	0.0000000E+000	0.0000000E+000	0.0000000E+000	-0.719258	0.0000000E+000	0.0000000E+000	0.0000000E+000	0.719258	79.6554	0.719258	-0.000328734
425.136	0.224892	0.00228864	0.224904	-0.583057	24.1807	-0.000296531	-1.05634	163574	16.9386	1	9	0.0104681	0.046545	0	-0.00778171	4.44612	0.0452464	4.44635	0.583057	16938.5	1.66446e+06	1.66455e+06	-89.4169	0.0000000E+000	0.0000000E+000	0.0000000E+000	89.4169	0.0000000E+000	0.0000000E+000	0.0000000E+000	-89.4169	0.0000000E+000	0.0000000E+000	0.0000000E+000	-0.583057	0.0000000E+000	0.0000000E+000	0.0000000E+000	0.583057	98.2645	0.583057	-0.000307345
176.411	0.225549	0.0023981	0.225562	-0.609163	27.5102	-0.000293735	-1.04812	376206	42.5238	1	9	0.0104728	0.0464299	0	-0.00872933	4.43313	0.0471344	4.43338	0.609163	42523.6	3.99949e+06	3.99971e+06	-89.3908	0.0000000E+000	0.0000000E+000	0.0000000E+000	89.3908	0.0000000E+000	0.0000000E+000	0.0000000E+000	-89.3908	0.0000000E+000	0.0000000E+000	0.0000000E+000	-0.609163	0.0000000E+000	0.0000000E+000	0.0000000E+000	0.609163	94.0529	0.609163	-0.000368485
73.2422	0.226472	0.00310305	0.226494	-0.784998	30.8896	-0.000310455	-1.11311	700278	131.442	1	9	0.0104734	0.0462414	0	-0.00969396	4.41472	0.060489	4.41513	0.784998	131442	9.59317e+06	9.59407e+06	-89.215	0.0000000E+000	0.0000000E+000	0.0000000E+000	89.215	0.0000000E+000	0.0000000E+000	0.0000000E+000	-89.215	0.0000000E+000	0.0000000E+000	0.0000000E+000	-0.784998	0.0000000E+000	0.0000000E+000	0.0000000E+000	0.784998	72.9839	0.784998	-0.000315168
30.3988	0.227835	0.00420726	0.227874	-1.05792	34.2181	-0.000296457	-1.03375	1.24441e+06	424.203	1	9	0.0104733	0.0459611	0	-0.0106399	4.38765	0.0810235	4.38839	1.05792	424205	2.29718e+07	2.29757e+07	-88.9421	0.0000000E+000	0.0000000E+000	0.0000000E+000	88.9421	0.0000000E+000	0.0000000E+000	0.0000000E+000	-88.9421	0.0000000E+000	0.0000000E+000	0.0000000E+000	-1.05792	0.0000000E+000	0.0000000E+000	0.0000000E+000	1.05792	54.1528	1.05792	-0.000339626
12.628	0.230064	0.00576924	0.230137	-1.43649	37.7443	-0.000291899	-1.05684	2.18458e+06	1372.89	1	9	0.0104746	0.0455146	0	-0.0115435	4.34388	0.10893	4.34525	1.43649	1.37289e+06	5.47476e+07	5.47648e+07	-88.5635	0.0000000E+000	0.0000000E+000	0.0000000E+000	88.5635	0.0000000E+000	0.0000000E+000	0.0000000E+000	-88.5635	0.0000000E+000	0.0000000E+000	0.0000000E+000	-1.43649	0.0000000E+000	0.0000000E+000	0.0000000E+000	1.43649	39.8777	1.43649	-0.000196221
5.23626	0.233576	0.00752091	0.233697	-1.84423	40.8287	-0.000293679	-1.06891	4.04137e+06	4185.65	1	9	0.0104748	0.044822	0	-0.013008	4.27683	0.13771	4.27905	1.84423	4.18566e+06	1.29993e+08	1.30061e+08	-88.1558	0.0000000E+000	0.0000000E+000	0.0000000E+000	88.1558	0.0000000E+000	0.0000000E+000	0.0000000E+000	-88.1558	0.0000000E+000	0.0000000E+000	0.0000000E+000	-1.84423	0.0000000E+000	0.0000000E+000	0.0000000E+000	1.84423	31.0569	1.84423	-0.00077243
2.17497	0.238718	0.00950789	0.238907	-2.28083	46.4897	-0.000285972	-1.04109	7.6963e+06	12189.7	1	9	0.0104773	0.0438552	0	-0.0151598	4.18241	0.166581	4.18573	2.28083	1.21897e+07	3.06051e+08	3.06293e+08	-87.7192	0.0000000E+000	0.0000000E+000	0.0000000E+000	87.7192	0.0000000E+000	0.0000000E+000	0.0000000E+000	-87.7192	0.0000000E+000	0.0000000E+000	0.0000000E+000	-2.28083	0.0000000E+000	0.0000000E+000	0.0000000E+000	2.28083	25.1073	2.28083	-0.00162736
0.902137	0.244534	0.00925293	0.244709	-2.16698	60.8989	-0.000278209	-0.994485	1.90664e+07	27260	1	10	0.0104758	0.0428089	0	-0.0173902	4.08356	0.154518	4.08648	2.16698	2.726e+07	7.20421e+08	7.20937e+08	-87.833	0.0000000E+000	0.0000000E+000	0.0000000E+000	87.833	0.0000000E+000	0.0000000E+000	0.0000000E+000	-87.833	0.0000000E+000	0.0000000E+000	0.0000000E+000	-2.16698	0.0000000E+000	0.0000000E+000	0.0000000E+000	2.16698	26.4278	2.16698	-0.0026765
0.375024	0.248482	0.0064162	0.248565	-1.47914	92.4589	-0.000280094	-1.0085	6.61429e+07	44071.7	1	10	0.0104778	0.0421531	0	-0.0293007	4.02176	0.103848	4.0231	1.47914	4.40717e+07	1.70678e+09	1.70735e+09	-88.5209	0.0000000E+000	0.0000000E+000	0.0000000E+000	88.5209	0.0000000E+000	0.0000000E+000	0.0000000E+000	-88.5209	0.0000000E+000	0.0000000E+000	0.0000000E+000	-1.47914	0.0000000E+000	0.0000000E+000	0.0000000E+000	1.47914	38.7273	1.47914	-0.0027046
0.155417	0.2499	0.00378826	0.249929	-0.868485	168.245	-0.000275896	-0.990453	2.70322e+08	62105.2	1	10	0.0104757	0.0419145	0	-0.0360224	4.00067	0.0606465	4.00113	0.868485	6.21051e+07	4.0969e+09	4.09737e+09	-89.1315	0.0000000E+000	0.0000000E+000	0.0000000E+000	89.1315	0.0000000E+000	0.0000000E+000	0.0000000E+000	-89.1315	0.0000000E+000	0.0000000E+000	0.0000000E+000	-0.868485	0.0000000E+000	0.0000000E+000	0.0000000E+000	0.868485	65.9671	0.868485	-0.00510711
0.0865095	0.246229	0.00209683	0.246238	-0.487906	271.373	-0.000274301	-1.01098	8.7739e+08	63622.4	1	10	0.0104746	0.0425387	0	-0.0791706	4.06096	0.0345823	4.06111	0.487906	6.36225e+07	7.47112e+09	7.47139e+09	-89.5121	0.0000000E+000	0.0000000E+000	0.0000000E+000	89.5121	0.0000000E+000	0.0000000E+000	0.0000000E+000	-89.5121	0.0000000E+000	0.0000000E+000	0.0000000E+000	-0.487906	0.0000000E+000	0.0000000E+000	0.0000000E+000	0.487906	117.429	0.487906	-0.0283388