File: Python/ImpedanceDataOld/different flow rate_NIPS electrode_iron symmetric single-tank tests_0.5 M total iron_choose the cycle number=1/IDFF flow field/NoPattern_IDFF_ve=2 cms_EIS.mpt
EC-Lab ASCII FILE
Nb header lines : 63

Potentio Electrochemical Impedance Spectroscopy

Run on channel : 3 (SN 50730)
User :
CE vs. WE compliance from -10 V to 10 V
Electrode connection : standard
Potential control : Ewe
Ewe ctrl range : min = -10.00 V, max = 10.00 V
Safety Limits :
	Do not start on E overload
Acquisition started on : 02/14/2023 14:26:00.376
Loaded Setting File :  C:\Users\sto063\Documents\EC-Lab\Data\Baichen\Micormolding\20230214_denseNoPatternS4_IDFF\NoPattern_IDFF_05Fe_2MHCL_ve10cms_EIS_PCGA.mps
Saved on :
	File : NoPattern_IDFF_05Fe_2MHCL_ve2cms_EIS_PCGA_01_PEIS_C03.mpr
	Directory : C:\Users\sto063\Documents\EC-Lab\Data\Baichen\Micormolding\20230214_denseNoPatternS4_IDFF\
	Host : 131.155.90.158
Device : VSP-3e (SN .003050)
Address : USB
EC-Lab for windows v11.43 (software)
Internet server v11.40 (firmware)
Command interpretor v11.40 (firmware)
Electrode material :
Initial state :
Electrolyte :
Comments :
Electrode surface area : 0.001 cm2
Characteristic mass : 0.001 g
Equivalent Weight : 0.000 g/eq.
Density : 0.000 g/cm3
Volume (V) : 0.001 cm3
Cycle Definition : Charge/Discharge alternance
Mode                Single sine
E (V)               0.0000
vs.                 Eoc
tE (h:m:s)          0:00:0.0000
record              0
dI                  0.000
unit dI             mA
dt (s)              0.000
fi                  200.000
unit fi             kHz
ff                  20.000
unit ff             mHz
Nd                  8
Points              per decade
spacing             Logarithmic
Va (mV)             10.0
pw                  0.10
Na                  5
corr                0
E range min (V)     -10.000
E range max (V)     10.000
I Range             Auto
Bandwidth           5
nc cycles           0
goto Ns'            0
nr cycles           0
inc. cycle          0

freq/Hz	Re(Z)/Ohm	-Im(Z)/Ohm	|Z|/Ohm	Phase(Z)/deg	time/s	<Ewe>/V	<I>/mA	Cs/uF	Cp/uF	cycle number	I Range	|Ewe|/V	|I|/A	Ns	(Q-Qo)/mA.h	Re(Y)/Ohm-1	Im(Y)/Ohm-1	|Y|/Ohm-1	Phase(Y)/deg	Re(C)/nF	Im(C)/nF	|C|/nF	Phase(C)/deg	Re(M)	Im(M)	|M|	Phase(M)/deg	Re(Permittivity)	Im(Permittivity)	|Permittivity|	Phase(Permittivity)/deg	Re(Resistivity)/Ohm.cm	Im(Resistivity)/Ohm.cm	|Resistivity|/Ohm.cm	Phase(Resistivity)/deg	Re(Conductivity)/mS/cm	Im(Conductivity)/mS/cm	|Conductivity|/mS/cm	Phase(Conductivity)/deg	Tan(Delta)	Loss Angle(Delta)/deg	dq/mA.h
199998	0.188113	-0.0751814	0.20258	21.7846	1.73848	-0.00037791	-1.35347	-10.5848	-1.45784	1	9	0.000827502	0.00408481	0	-0.000513952	4.58379	-1.83196	4.93631	-21.7846	-1457.84	3647.7	3928.23	-111.785	0.0000000E+000	0.0000000E+000	0.0000000E+000	111.785	0.0000000E+000	0.0000000E+000	0.0000000E+000	-111.785	0.0000000E+000	0.0000000E+000	0.0000000E+000	21.7846	0.0000000E+000	0.0000000E+000	0.0000000E+000	-21.7846	-2.50213	-21.7846	-0.000513952
83024	0.201189	-0.0267259	0.202956	7.56686	4.3475	-0.000444973	-1.48989	-71.7272	-1.24378	1	9	0.0225312	0.111015	0	-0.00158738	4.88426	-0.648824	4.92717	-7.56686	-1243.78	9363	9445.25	-97.5669	0.0000000E+000	0.0000000E+000	0.0000000E+000	97.5669	0.0000000E+000	0.0000000E+000	0.0000000E+000	-97.5669	0.0000000E+000	0.0000000E+000	0.0000000E+000	7.56686	0.0000000E+000	0.0000000E+000	0.0000000E+000	-7.56686	-7.52787	-7.56686	-0.000465564
34469.6	0.204326	-0.00752137	0.204464	2.10814	8.32648	-0.000314649	-0.991942	-613.884	-0.830701	1	9	0.00934914	0.045725	0	-0.00300845	4.88752	-0.179913	4.89083	-2.10814	-830.7	22566.9	22582.2	-92.1081	0.0000000E+000	0.0000000E+000	0.0000000E+000	92.1081	0.0000000E+000	0.0000000E+000	0.0000000E+000	-92.1081	0.0000000E+000	0.0000000E+000	0.0000000E+000	2.10814	0.0000000E+000	0.0000000E+000	0.0000000E+000	-2.10814	-27.1661	-2.10814	-0.000158894
14307.5	0.208115	0.000392934	0.208115	-0.108178	10.7985	-0.000307174	-0.97399	28309.9	0.100918	1	9	0.0104679	0.0502984	0	-0.00373966	4.80503	0.00907219	4.80503	0.108178	100.918	53450.7	53450.8	-89.8918	0.0000000E+000	0.0000000E+000	0.0000000E+000	89.8918	0.0000000E+000	0.0000000E+000	0.0000000E+000	-89.8918	0.0000000E+000	0.0000000E+000	0.0000000E+000	-0.108178	0.0000000E+000	0.0000000E+000	0.0000000E+000	0.108178	529.643	0.108178	-0.000240872
5937.5	0.211499	0.00298469	0.21152	-0.808509	13.7395	-0.00029929	-0.884811	8980.86	1.78819	1	9	0.0103093	0.0487394	0	-0.004324	4.72722	0.0667109	4.72769	0.808509	1788.19	126713	126726	-89.1915	0.0000000E+000	0.0000000E+000	0.0000000E+000	89.1915	0.0000000E+000	0.0000000E+000	0.0000000E+000	-89.1915	0.0000000E+000	0.0000000E+000	0.0000000E+000	-0.808509	0.0000000E+000	0.0000000E+000	0.0000000E+000	0.808509	70.8613	0.808509	-0.000218003
2465.79	0.21423	0.00339675	0.214257	-0.908384	17.5307	-0.000294444	-0.872893	19002	4.77592	1	9	0.0100693	0.0469962	0	-0.00507972	4.6667	0.0739934	4.66729	0.908384	4775.94	301213	301251	-89.0916	0.0000000E+000	0.0000000E+000	0.0000000E+000	89.0916	0.0000000E+000	0.0000000E+000	0.0000000E+000	-89.0916	0.0000000E+000	0.0000000E+000	0.0000000E+000	-0.908384	0.0000000E+000	0.0000000E+000	0.0000000E+000	0.908384	63.0691	0.908384	-0.000290525
1024.02	0.216272	0.00290995	0.216292	-0.770871	20.8779	-0.000303484	-0.873023	53410.5	9.6676	1	9	0.0104073	0.0481169	0	-0.0059618	4.62296	0.0622022	4.62338	0.770871	9667.64	718511	718576	-89.2291	0.0000000E+000	0.0000000E+000	0.0000000E+000	89.2291	0.0000000E+000	0.0000000E+000	0.0000000E+000	-89.2291	0.0000000E+000	0.0000000E+000	0.0000000E+000	-0.770871	0.0000000E+000	0.0000000E+000	0.0000000E+000	0.770871	74.3215	0.770871	-0.000259788
425.136	0.21777	0.00254455	0.217785	-0.669446	24.2287	-0.00029463	-0.858051	147123	20.0839	1	9	0.0104658	0.0480557	0	-0.00680898	4.59137	0.0536482	4.59168	0.669446	20083.9	1.71884e+06	1.71895e+06	-89.3306	0.0000000E+000	0.0000000E+000	0.0000000E+000	89.3306	0.0000000E+000	0.0000000E+000	0.0000000E+000	-89.3306	0.0000000E+000	0.0000000E+000	0.0000000E+000	-0.669446	0.0000000E+000	0.0000000E+000	0.0000000E+000	0.669446	85.5829	0.669446	-0.000248276
176.411	0.218845	0.00261212	0.21886	-0.683846	27.5572	-0.000300166	-0.861981	345383	49.1985	1	9	0.0104728	0.0478513	0	-0.00756143	4.5688	0.0545328	4.56912	0.683846	49198.5	4.12188e+06	4.12218e+06	-89.3162	0.0000000E+000	0.0000000E+000	0.0000000E+000	89.3162	0.0000000E+000	0.0000000E+000	0.0000000E+000	-89.3162	0.0000000E+000	0.0000000E+000	0.0000000E+000	-0.683846	0.0000000E+000	0.0000000E+000	0.0000000E+000	0.683846	83.7807	0.683846	-0.000305279
73.2422	0.220146	0.00347655	0.220174	-0.904741	30.9365	-0.000296531	-0.872967	625043	155.839	1	9	0.0104751	0.0475767	0	-0.00835571	4.5413	0.0717163	4.54187	0.904741	155839	9.86823e+06	9.86946e+06	-89.0953	0.0000000E+000	0.0000000E+000	0.0000000E+000	89.0953	0.0000000E+000	0.0000000E+000	0.0000000E+000	-89.0953	0.0000000E+000	0.0000000E+000	0.0000000E+000	-0.904741	0.0000000E+000	0.0000000E+000	0.0000000E+000	0.904741	63.3231	0.904741	-0.000316683
30.3988	0.222024	0.0050707	0.222081	-1.30833	34.2641	-0.000299551	-0.866692	1.03251e+06	538.277	1	9	0.0104743	0.0471641	0	-0.00919325	4.50168	0.102812	4.50285	1.30833	538278	2.35688e+07	2.3575e+07	-88.6917	0.0000000E+000	0.0000000E+000	0.0000000E+000	88.6917	0.0000000E+000	0.0000000E+000	0.0000000E+000	-88.6917	0.0000000E+000	0.0000000E+000	0.0000000E+000	-1.30833	0.0000000E+000	0.0000000E+000	0.0000000E+000	1.30833	43.7856	1.30833	-0.00037398
12.628	0.224986	0.00760483	0.225115	-1.93594	37.7904	-0.000288777	-0.850528	1.65728e+06	1891.34	1	9	0.0104765	0.0465383	0	-0.0101051	4.43965	0.150066	4.44218	1.93594	1.89134e+06	5.59545e+07	5.59865e+07	-88.0641	0.0000000E+000	0.0000000E+000	0.0000000E+000	88.0641	0.0000000E+000	0.0000000E+000	0.0000000E+000	-88.0641	0.0000000E+000	0.0000000E+000	0.0000000E+000	-1.93594	0.0000000E+000	0.0000000E+000	0.0000000E+000	1.93594	29.5846	1.93594	-0.000574041
5.23626	0.229343	0.0116414	0.229638	-2.90582	40.8747	-0.000298787	-0.963004	2.61093e+06	6709.89	1	9	0.0104737	0.0456097	0	-0.0103632	4.34908	0.220758	4.35468	2.90582	6.70989e+06	1.32189e+08	1.3236e+08	-87.0942	0.0000000E+000	0.0000000E+000	0.0000000E+000	87.0942	0.0000000E+000	0.0000000E+000	0.0000000E+000	-87.0942	0.0000000E+000	0.0000000E+000	0.0000000E+000	-2.90582	0.0000000E+000	0.0000000E+000	0.0000000E+000	2.90582	19.7007	2.90582	0.000322975
2.17497	0.236518	0.0172353	0.237146	-4.16783	46.5357	-0.000283992	-0.81544	4.24568e+06	22426.2	1	9	0.0104761	0.0441757	0	-0.0120108	4.20567	0.306471	4.21682	4.16783	2.24262e+07	3.07752e+08	3.08568e+08	-85.8322	0.0000000E+000	0.0000000E+000	0.0000000E+000	85.8322	0.0000000E+000	0.0000000E+000	0.0000000E+000	-85.8322	0.0000000E+000	0.0000000E+000	0.0000000E+000	-4.16783	0.0000000E+000	0.0000000E+000	0.0000000E+000	4.16783	13.7229	4.16783	-0.00134783
0.902137	0.247318	0.0245023	0.248529	-5.65795	60.9448	-0.000274138	-0.74761	7.20013e+06	69984.4	1	10	0.0104752	0.0421488	0	-0.0133044	4.00407	0.396692	4.02367	5.65795	6.99844e+07	7.06398e+08	7.09857e+08	-84.342	0.0000000E+000	0.0000000E+000	0.0000000E+000	84.342	0.0000000E+000	0.0000000E+000	0.0000000E+000	-84.342	0.0000000E+000	0.0000000E+000	0.0000000E+000	-5.65795	0.0000000E+000	0.0000000E+000	0.0000000E+000	5.65795	10.0937	5.65795	0.000631256
0.375024	0.263682	0.0328316	0.265718	-7.09749	92.5052	-0.000271608	-0.744297	1.29261e+07	197338	1	10	0.0104734	0.0394154	0	-0.0250182	3.73455	0.464996	3.76338	7.09749	1.97338e+08	1.58489e+09	1.59713e+09	-82.9025	0.0000000E+000	0.0000000E+000	0.0000000E+000	82.9025	0.0000000E+000	0.0000000E+000	0.0000000E+000	-82.9025	0.0000000E+000	0.0000000E+000	0.0000000E+000	-7.09749	0.0000000E+000	0.0000000E+000	0.0000000E+000	7.09749	8.03135	7.09749	-0.00642003
0.155417	0.286239	0.0418367	0.28928	-8.31548	168.292	-0.000273	-0.724105	2.44773e+07	511967	1	10	0.0104752	0.0362113	0	-0.0358533	3.42051	0.499942	3.45685	8.31548	5.11967e+08	3.50278e+09	3.54e+09	-81.6845	0.0000000E+000	0.0000000E+000	0.0000000E+000	81.6845	0.0000000E+000	0.0000000E+000	0.0000000E+000	-81.6845	0.0000000E+000	0.0000000E+000	0.0000000E+000	-8.31548	0.0000000E+000	0.0000000E+000	0.0000000E+000	8.31548	6.84181	8.31548	-0.000654693
0.0645779	0.318658	0.0433757	0.321596	-7.75146	350.541	-0.000280446	-0.75574	5.68185e+07	1.03362e+06	1	10	0.0104778	0.0325805	0	-0.0553152	3.08107	0.419396	3.10949	7.75146	1.03362e+09	7.59344e+09	7.66347e+09	-82.2485	0.0000000E+000	0.0000000E+000	0.0000000E+000	82.2485	0.0000000E+000	0.0000000E+000	0.0000000E+000	-82.2485	0.0000000E+000	0.0000000E+000	0.0000000E+000	-7.75146	0.0000000E+000	0.0000000E+000	0.0000000E+000	7.75146	7.34646	7.75146	-0.0155272
0.0268165	0.345733	0.029692	0.347006	-4.9086	788.979	-0.000270549	-0.720592	1.99884e+08	1.46348e+06	1	10	0.0104754	0.030188	0	-0.208248	2.87123	0.246585	2.8818	4.9086	1.46348e+09	1.70407e+10	1.71034e+10	-85.0914	0.0000000E+000	0.0000000E+000	0.0000000E+000	85.0914	0.0000000E+000	0.0000000E+000	0.0000000E+000	-85.0914	0.0000000E+000	0.0000000E+000	0.0000000E+000	-4.9086	0.0000000E+000	0.0000000E+000	0.0000000E+000	4.9086	11.644	4.9086	-0.0651354
0.0199925	0.351158	0.024284	0.351997	-3.95593	1044.41	-0.000277854	-0.734901	3.27819e+08	1.56026e+06	1	10	0.0104756	0.0297606	0	-0.27182	2.83417	0.195994	2.84094	3.95593	1.56026e+09	2.25621e+10	2.2616e+10	-86.0441	0.0000000E+000	0.0000000E+000	0.0000000E+000	86.0441	0.0000000E+000	0.0000000E+000	0.0000000E+000	-86.0441	0.0000000E+000	0.0000000E+000	0.0000000E+000	-3.95593	0.0000000E+000	0.0000000E+000	0.0000000E+000	3.95593	14.4605	3.95593	-0.0635719