File: Python/ImpedanceDataOld/different flow rate_NIPS electrode_iron symmetric single-tank tests_0.5 M total iron_choose the cycle number=1/FTFF flow field/NoPattern_FTFF_ve=5 cms_EIS.mpt
EC-Lab ASCII FILE
Nb header lines : 72

Potentio Electrochemical Impedance Spectroscopy

Run on channel : 1 (SN 50780)
User :
CE vs. WE compliance from -10 V to 10 V
Electrode connection : standard
Potential control : Ewe
Ewe ctrl range : min = -10.00 V, max = 10.00 V
Safety Limits :
	Do not start on E overload
Acquisition started on : 02/13/2023 16:02:39.721
Loaded Setting File :  C:\Users\sto063\Documents\EC-Lab\Data\Baichen\Micormolding\20230213_denseNoPatternS3_FTFF\NoPattern_FTFF_05Fe_2MHCL_ve10cms_EIS_PCGA.mps
Saved on :
	File : NoPattern_FTFF_05Fe_2MHCL_ve5cms_EIS_PCGA_01_PEIS_C01.mpr
	Directory : C:\Users\sto063\Documents\EC-Lab\Data\Baichen\Micormolding\20230213_denseNoPatternS3_FTFF\
	Host : 131.155.90.158
Device : VSP-3e (SN .003050)
Address : USB
EC-Lab for windows v11.43 (software)
Internet server v11.40 (firmware)
Command interpretor v11.40 (firmware)
Electrode material :
Initial state :
Electrolyte :
Comments :
Electrode surface area : 0.001 cm2
Characteristic mass : 0.001 g
Equivalent Weight : 0.000 g/eq.
Density : 0.000 g/cm3
Volume (V) : 0.001 cm3
Cycle Definition : Charge/Discharge alternance
Mode                Single sine
E (V)               0.0000
vs.                 Eoc
tE (h:m:s)          0:00:0.0000
record              0
dI                  0.000
unit dI             mA
dt (s)              0.000
fi                  200.000
unit fi             kHz
ff                  4.000
unit ff             mHz
Nd                  8
Points              per decade
spacing             Logarithmic
Va (mV)             10.0
pw                  0.10
Na                  5
corr                0
E range min (V)     -10.000
E range max (V)     10.000
I Range             Auto
Bandwidth           5
nc cycles           0
goto Ns'            0
nr cycles           0
inc. cycle          0

Modify on : 02/13/2023 16:03
ff                  5.000

Modify on : 02/13/2023 16:17
ff                  7.000

Modify on : 02/13/2023 16:17
ff                  8.000

freq/Hz	Re(Z)/Ohm	-Im(Z)/Ohm	|Z|/Ohm	Phase(Z)/deg	time/s	<Ewe>/V	<I>/mA	Cs/uF	Cp/uF	cycle number	I Range	|Ewe|/V	|I|/A	Ns	(Q-Qo)/mA.h	Re(Y)/Ohm-1	Im(Y)/Ohm-1	|Y|/Ohm-1	Phase(Y)/deg	Re(C)/nF	Im(C)/nF	|C|/nF	Phase(C)/deg	Re(M)	Im(M)	|M|	Phase(M)/deg	Re(Permittivity)	Im(Permittivity)	|Permittivity|	Phase(Permittivity)/deg	Re(Resistivity)/Ohm.cm	Im(Resistivity)/Ohm.cm	|Resistivity|/Ohm.cm	Phase(Resistivity)/deg	Re(Conductivity)/mS/cm	Im(Conductivity)/mS/cm	|Conductivity|/mS/cm	Phase(Conductivity)/deg	Tan(Delta)	Loss Angle(Delta)/deg	dq/mA.h
199998	0.202986	-0.146025	0.250053	35.7307	1.7395	-0.00111893	-3.34098	-5.44963	-1.85848	1	9	0.00104234	0.00416847	0	-0.00134439	3.2464	-2.33541	3.99916	-35.7307	-1858.48	2583.42	3182.46	-125.731	0.0000000E+000	0.0000000E+000	0.0000000E+000	125.731	0.0000000E+000	0.0000000E+000	0.0000000E+000	-125.731	0.0000000E+000	0.0000000E+000	0.0000000E+000	35.7307	0.0000000E+000	0.0000000E+000	0.0000000E+000	-35.7307	-1.39007	-35.7307	-0.00134439
83636.4	0.215196	-0.0574376	0.22273	14.9443	4.34848	-0.00116781	-3.06692	-33.1306	-2.20326	1	9	0.0239331	0.107453	0	-0.00372185	4.33789	-1.15782	4.48975	-14.9443	-2203.26	8254.74	8543.72	-104.944	0.0000000E+000	0.0000000E+000	0.0000000E+000	104.944	0.0000000E+000	0.0000000E+000	0.0000000E+000	-104.944	0.0000000E+000	0.0000000E+000	0.0000000E+000	14.9443	0.0000000E+000	0.0000000E+000	0.0000000E+000	-14.9443	-3.74661	-14.9443	-0.000902273
34970.7	0.217039	-0.0215644	0.218108	5.67413	8.32749	-0.000994842	-2.47196	-211.046	-2.06305	1	9	0.00924291	0.0423776	0	-0.00663283	4.56242	-0.453309	4.58488	-5.67413	-2063.06	20764	20866.2	-95.6741	0.0000000E+000	0.0000000E+000	0.0000000E+000	95.6741	0.0000000E+000	0.0000000E+000	0.0000000E+000	-95.6741	0.0000000E+000	0.0000000E+000	0.0000000E+000	5.67413	0.0000000E+000	0.0000000E+000	0.0000000E+000	-5.67413	-10.0647	-5.67413	-0.000531793
14622.9	0.219502	-0.00625882	0.219591	1.63328	10.7995	-0.000981728	-2.42791	-1738.97	-1.4127	1	9	0.0104639	0.0476517	0	-0.00822607	4.55207	-0.129797	4.55392	-1.63328	-1412.7	49544.5	49564.6	-91.6333	0.0000000E+000	0.0000000E+000	0.0000000E+000	91.6333	0.0000000E+000	0.0000000E+000	0.0000000E+000	-91.6333	0.0000000E+000	0.0000000E+000	0.0000000E+000	1.63328	0.0000000E+000	0.0000000E+000	0.0000000E+000	-1.63328	-35.0708	-1.63328	-0.000529252
6115.42	0.221841	-0.00046173	0.221841	0.119253	13.6927	-0.00100589	-2.38779	-56364.5	-0.244173	1	9	0.0102364	0.0461427	0	-0.010322	4.50772	-0.00938217	4.50773	-0.119253	-244.177	117314	117314	-90.1193	0.0000000E+000	0.0000000E+000	0.0000000E+000	90.1193	0.0000000E+000	0.0000000E+000	0.0000000E+000	-90.1193	0.0000000E+000	0.0000000E+000	0.0000000E+000	0.119253	0.0000000E+000	0.0000000E+000	0.0000000E+000	-0.119253	-480.456	-0.119253	-0.000787454
2567.54	0.223607	0.0016482	0.223613	-0.422318	17.484	-0.00098685	-2.35586	37609.2	2.04325	1	9	0.0101961	0.0455972	0	-0.0128457	4.4719	0.0329623	4.47202	0.422318	2043.24	277201	277209	-89.5777	0.0000000E+000	0.0000000E+000	0.0000000E+000	89.5777	0.0000000E+000	0.0000000E+000	0.0000000E+000	-89.5777	0.0000000E+000	0.0000000E+000	0.0000000E+000	-0.422318	0.0000000E+000	0.0000000E+000	0.0000000E+000	0.422318	135.667	0.422318	-0.000898837
1068.97	0.225277	0.00207366	0.225286	-0.527389	20.8319	-0.000987148	-2.34329	71798.6	6.08304	1	9	0.0105659	0.0468999	0	-0.0150753	4.43861	0.0408571	4.4388	0.527389	6083.05	660846	660874	-89.4726	0.0000000E+000	0.0000000E+000	0.0000000E+000	89.4726	0.0000000E+000	0.0000000E+000	0.0000000E+000	-89.4726	0.0000000E+000	0.0000000E+000	0.0000000E+000	-0.527389	0.0000000E+000	0.0000000E+000	0.0000000E+000	0.527389	108.637	0.527389	-0.000765447
447.434	0.226878	0.00232478	0.22689	-0.587079	24.1787	-0.000983572	-2.35381	153006	16.0636	1	9	0.0106293	0.0468478	0	-0.0172119	4.40719	0.0451596	4.40742	0.587079	16063.6	1.56766e+06	1.56775e+06	-89.4129	0.0000000E+000	0.0000000E+000	0.0000000E+000	89.4129	0.0000000E+000	0.0000000E+000	0.0000000E+000	-89.4129	0.0000000E+000	0.0000000E+000	0.0000000E+000	-0.587079	0.0000000E+000	0.0000000E+000	0.0000000E+000	0.587079	97.5913	0.587079	-0.000735174
186.974	0.227683	0.00280877	0.2277	-0.706782	27.5167	-0.00098074	-2.36321	303056	46.1133	1	9	0.0106388	0.046723	0	-0.0194766	4.3914	0.0541737	4.39174	0.706782	46113.1	3.73802e+06	3.7383e+06	-89.2932	0.0000000E+000	0.0000000E+000	0.0000000E+000	89.2932	0.0000000E+000	0.0000000E+000	0.0000000E+000	-89.2932	0.0000000E+000	0.0000000E+000	0.0000000E+000	-0.706782	0.0000000E+000	0.0000000E+000	0.0000000E+000	0.706782	81.0616	0.706782	-0.000781255
78.2228	0.228901	0.00374617	0.228932	-0.937614	30.8933	-0.000980349	-2.34965	543124	145.433	1	9	0.0106367	0.0464622	0	-0.0216973	4.36753	0.0714787	4.36812	0.937614	145433	8.88634e+06	8.88753e+06	-89.0624	0.0000000E+000	0.0000000E+000	0.0000000E+000	89.0624	0.0000000E+000	0.0000000E+000	0.0000000E+000	-89.0624	0.0000000E+000	0.0000000E+000	0.0000000E+000	-0.937614	0.0000000E+000	0.0000000E+000	0.0000000E+000	0.937614	61.1026	0.937614	-0.000750169
32.7078	0.230678	0.00509762	0.230734	-1.26594	34.3658	-0.000988546	-2.33259	954555	465.921	1	9	0.0106343	0.0460889	0	-0.0238707	4.33293	0.0957511	4.33399	1.26594	465919	2.10839e+07	2.1089e+07	-88.7341	0.0000000E+000	0.0000000E+000	0.0000000E+000	88.7341	0.0000000E+000	0.0000000E+000	0.0000000E+000	-88.7341	0.0000000E+000	0.0000000E+000	0.0000000E+000	-1.26594	0.0000000E+000	0.0000000E+000	0.0000000E+000	1.26594	45.2521	1.26594	-0.000722361
13.6901	0.233396	0.0075048	0.233517	-1.8417	37.9249	-0.000979203	-2.35223	1.54908e+06	1599.98	1	9	0.0106383	0.045557	0	-0.0264702	4.28014	0.137627	4.28235	1.8417	1.59998e+06	4.97588e+07	4.97846e+07	-88.1583	0.0000000E+000	0.0000000E+000	0.0000000E+000	88.1583	0.0000000E+000	0.0000000E+000	0.0000000E+000	-88.1583	0.0000000E+000	0.0000000E+000	0.0000000E+000	-1.8417	0.0000000E+000	0.0000000E+000	0.0000000E+000	1.8417	31.0996	1.8417	-0.00106591
5.71925	0.237478	0.0112495	0.237744	-2.71212	41.4326	-0.00100127	-2.47632	2.4737e+06	5538.53	1	9	0.0106359	0.0447367	0	-0.0287537	4.20149	0.199028	4.2062	2.71212	5.53852e+06	1.16919e+08	1.1705e+08	-87.2879	0.0000000E+000	0.0000000E+000	0.0000000E+000	87.2879	0.0000000E+000	0.0000000E+000	0.0000000E+000	-87.2879	0.0000000E+000	0.0000000E+000	0.0000000E+000	-2.71212	0.0000000E+000	0.0000000E+000	0.0000000E+000	2.71212	21.1101	2.71212	-0.000583371
2.39354	0.244128	0.0166422	0.244694	-3.89982	46.6157	-0.00098105	-2.37457	3.9955e+06	18481.7	1	9	0.0106378	0.0434738	0	-0.0328598	4.07727	0.277947	4.08674	3.89982	1.84818e+07	2.71113e+08	2.71742e+08	-86.1002	0.0000000E+000	0.0000000E+000	0.0000000E+000	86.1002	0.0000000E+000	0.0000000E+000	0.0000000E+000	-86.1002	0.0000000E+000	0.0000000E+000	0.0000000E+000	-3.89982	0.0000000E+000	0.0000000E+000	0.0000000E+000	3.89982	14.6692	3.89982	-0.00241901
0.953907	0.253742	0.0241654	0.25489	-5.44023	59.7196	-0.000965765	-2.41879	6.90429e+06	62058.7	1	10	0.0106365	0.0417297	0	-0.0401131	3.90559	0.371954	3.92326	5.44023	6.20587e+07	6.51629e+08	6.54577e+08	-84.5598	0.0000000E+000	0.0000000E+000	0.0000000E+000	84.5598	0.0000000E+000	0.0000000E+000	0.0000000E+000	-84.5598	0.0000000E+000	0.0000000E+000	0.0000000E+000	-5.44023	0.0000000E+000	0.0000000E+000	0.0000000E+000	5.44023	10.5002	5.44023	-0.00507002
0.397745	0.268877	0.034571	0.27109	-7.32665	89.5326	-0.000967773	-2.39633	1.15745e+07	188235	1	10	0.0106382	0.0392425	0	-0.0621814	3.65869	0.470419	3.68881	7.32665	1.88235e+08	1.464e+09	1.47605e+09	-82.6733	0.0000000E+000	0.0000000E+000	0.0000000E+000	82.6733	0.0000000E+000	0.0000000E+000	0.0000000E+000	-82.6733	0.0000000E+000	0.0000000E+000	0.0000000E+000	-7.32665	0.0000000E+000	0.0000000E+000	0.0000000E+000	7.32665	7.77752	7.32665	-0.00716506
0.165554	0.288452	0.0481814	0.292449	-9.48281	160.734	-0.000970553	-2.4204	1.99527e+07	541577	1	10	0.0106368	0.0363714	0	-0.0998123	3.37268	0.563353	3.4194	9.48281	5.41577e+08	3.24232e+09	3.28723e+09	-80.5172	0.0000000E+000	0.0000000E+000	0.0000000E+000	80.5172	0.0000000E+000	0.0000000E+000	0.0000000E+000	-80.5172	0.0000000E+000	0.0000000E+000	0.0000000E+000	-9.48281	0.0000000E+000	0.0000000E+000	0.0000000E+000	9.48281	5.9868	9.48281	-0.019356
0.0690785	0.324932	0.0621053	0.330814	-10.8206	331.188	-0.000964037	-2.42336	3.70978e+07	1.30749e+06	1	10	0.0106302	0.0321334	0	-0.24232	2.9691	0.567494	3.02285	10.8206	1.30749e+09	6.84073e+09	6.96456e+09	-79.1794	0.0000000E+000	0.0000000E+000	0.0000000E+000	79.1794	0.0000000E+000	0.0000000E+000	0.0000000E+000	-79.1794	0.0000000E+000	0.0000000E+000	0.0000000E+000	-10.8206	0.0000000E+000	0.0000000E+000	0.0000000E+000	10.8206	5.23195	10.8206	-0.0623476
0.0288152	0.367507	0.0516959	0.371125	-8.00705	739.894	-0.000971109	-2.39244	1.06842e+08	2.07307e+06	1	10	0.0106382	0.0286648	0	-0.489147	2.66824	0.375332	2.69451	8.00705	2.07307e+09	1.47375e+10	1.48826e+10	-81.9929	0.0000000E+000	0.0000000E+000	0.0000000E+000	81.9929	0.0000000E+000	0.0000000E+000	0.0000000E+000	-81.9929	0.0000000E+000	0.0000000E+000	0.0000000E+000	-8.00705	0.0000000E+000	0.0000000E+000	0.0000000E+000	8.00705	7.10902	8.00705	-0.0933502
0.0142408	0.38389	0.0323618	0.385251	-4.81862	1595.84	-0.000974967	-2.42068	3.45345e+08	2.43686e+06	1	10	0.0106386	0.0276148	0	-0.993333	2.58653	0.218044	2.59571	4.81862	2.43686e+09	2.89071e+10	2.90096e+10	-85.1814	0.0000000E+000	0.0000000E+000	0.0000000E+000	85.1814	0.0000000E+000	0.0000000E+000	0.0000000E+000	-85.1814	0.0000000E+000	0.0000000E+000	0.0000000E+000	-4.81862	0.0000000E+000	0.0000000E+000	0.0000000E+000	4.81862	11.8624	4.81862	-0.236085
0.00800561	0.386542	0.0201506	0.387067	-2.98415	2711.33	-0.000972322	-2.45532	9.86594e+08	2.67388e+06	1	10	0.0106378	0.0274832	0	-1.87465	2.58003	0.134498	2.58353	2.98415	2.67387e+09	5.12921e+10	5.13618e+10	-87.0159	0.0000000E+000	0.0000000E+000	0.0000000E+000	87.0159	0.0000000E+000	0.0000000E+000	0.0000000E+000	-87.0159	0.0000000E+000	0.0000000E+000	0.0000000E+000	-2.98415	0.0000000E+000	0.0000000E+000	0.0000000E+000	2.98415	19.1827	2.98415	-0.520617