File: Python/ImpedanceDataOld/different flow rate_NIPS electrode_iron symmetric single-tank tests_0.5 M total iron_choose the cycle number=1/FTFF flow field/NoPattern_FTFF_ve=2 cms_EIS.mpt
EC-Lab ASCII FILE
Nb header lines : 66

Potentio Electrochemical Impedance Spectroscopy

Run on channel : 1 (SN 50780)
User :
CE vs. WE compliance from -10 V to 10 V
Electrode connection : standard
Potential control : Ewe
Ewe ctrl range : min = -10.00 V, max = 10.00 V
Safety Limits :
	Do not start on E overload
Acquisition started on : 02/13/2023 17:02:43.459
Loaded Setting File :  C:\Users\sto063\Documents\EC-Lab\Data\Baichen\Micormolding\20230213_denseNoPatternS3_FTFF\NoPattern_FTFF_05Fe_2MHCL_ve10cms_EIS_PCGA.mps
Saved on :
	File : NoPattern_FTFF_05Fe_2MHCL_ve2cms_EIS_PCGA_01_PEIS_C01.mpr
	Directory : C:\Users\sto063\Documents\EC-Lab\Data\Baichen\Micormolding\20230213_denseNoPatternS3_FTFF\
	Host : 131.155.90.158
Device : VSP-3e (SN .003050)
Address : USB
EC-Lab for windows v11.43 (software)
Internet server v11.40 (firmware)
Command interpretor v11.40 (firmware)
Electrode material :
Initial state :
Electrolyte :
Comments :
Electrode surface area : 0.001 cm2
Characteristic mass : 0.001 g
Equivalent Weight : 0.000 g/eq.
Density : 0.000 g/cm3
Volume (V) : 0.001 cm3
Cycle Definition : Charge/Discharge alternance
Mode                Single sine
E (V)               0.0000
vs.                 Eoc
tE (h:m:s)          0:00:0.0000
record              0
dI                  0.000
unit dI             mA
dt (s)              0.000
fi                  200.000
unit fi             kHz
ff                  4.000
unit ff             mHz
Nd                  8
Points              per decade
spacing             Logarithmic
Va (mV)             10.0
pw                  0.10
Na                  5
corr                0
E range min (V)     -10.000
E range max (V)     10.000
I Range             Auto
Bandwidth           5
nc cycles           0
goto Ns'            0
nr cycles           0
inc. cycle          0

Modify on : 02/13/2023 17:02
ff                  5.000

freq/Hz	Re(Z)/Ohm	-Im(Z)/Ohm	|Z|/Ohm	Phase(Z)/deg	time/s	<Ewe>/V	<I>/mA	Cs/uF	Cp/uF	cycle number	I Range	|Ewe|/V	|I|/A	Ns	(Q-Qo)/mA.h	Re(Y)/Ohm-1	Im(Y)/Ohm-1	|Y|/Ohm-1	Phase(Y)/deg	Re(C)/nF	Im(C)/nF	|C|/nF	Phase(C)/deg	Re(M)	Im(M)	|M|	Phase(M)/deg	Re(Permittivity)	Im(Permittivity)	|Permittivity|	Phase(Permittivity)/deg	Re(Resistivity)/Ohm.cm	Im(Resistivity)/Ohm.cm	|Resistivity|/Ohm.cm	Phase(Resistivity)/deg	Re(Conductivity)/mS/cm	Im(Conductivity)/mS/cm	|Conductivity|/mS/cm	Phase(Conductivity)/deg	Tan(Delta)	Loss Angle(Delta)/deg	dq/mA.h
199998	0.18903	-0.147684	0.239881	37.9996	1.73949	-0.000496684	-2.28658	-5.3884	-2.04238	1	9	0.000966634	0.00402964	0	-0.000962159	3.28502	-2.5665	4.16873	-37.9996	-2042.38	2614.16	3317.4	-128	0.0000000E+000	0.0000000E+000	0.0000000E+000	128	0.0000000E+000	0.0000000E+000	0.0000000E+000	-128	0.0000000E+000	0.0000000E+000	0.0000000E+000	37.9996	0.0000000E+000	0.0000000E+000	0.0000000E+000	-37.9996	-1.27996	-37.9996	-0.000962159
83636.4	0.201771	-0.0582749	0.210018	16.1096	4.34848	-0.000543627	-1.96305	-32.6545	-2.51415	1	9	0.0224548	0.106919	0	-0.00260536	4.57452	-1.3212	4.76149	-16.1096	-2514.15	8705.03	9060.82	-106.11	0.0000000E+000	0.0000000E+000	0.0000000E+000	106.11	0.0000000E+000	0.0000000E+000	0.0000000E+000	-106.11	0.0000000E+000	0.0000000E+000	0.0000000E+000	16.1096	0.0000000E+000	0.0000000E+000	0.0000000E+000	-16.1096	-3.46241	-16.1096	-0.000666225
34738.7	0.204116	-0.0210465	0.205198	5.88699	8.32748	-0.000398232	-1.25214	-217.684	-2.29002	1	9	0.00935382	0.0455844	0	-0.0042355	4.84764	-0.499843	4.87334	-5.88699	-2290.02	22209.4	22327.2	-95.887	0.0000000E+000	0.0000000E+000	0.0000000E+000	95.887	0.0000000E+000	0.0000000E+000	0.0000000E+000	-95.887	0.0000000E+000	0.0000000E+000	0.0000000E+000	5.88699	0.0000000E+000	0.0000000E+000	0.0000000E+000	-5.88699	-9.69833	-5.88699	-0.00032948
14474.5	0.207183	-0.00527149	0.207251	1.4575	10.7995	-0.000386514	-1.19075	-2085.86	-1.34946	1	9	0.0104487	0.050416	0	-0.00511622	4.82352	-0.122728	4.82508	-1.4575	-1349.46	53037.3	53054.5	-91.4575	0.0000000E+000	0.0000000E+000	0.0000000E+000	91.4575	0.0000000E+000	0.0000000E+000	0.0000000E+000	-91.4575	0.0000000E+000	0.0000000E+000	0.0000000E+000	1.4575	0.0000000E+000	0.0000000E+000	0.0000000E+000	-1.4575	-39.3026	-1.4575	-0.000316009
6032.66	0.210514	0.000907661	0.210516	-0.247037	13.716	-0.000382863	-1.08539	29066.2	0.540337	1	9	0.0102572	0.0487239	0	-0.0060735	4.75019	0.0204811	4.75023	0.247037	540.343	125321	125322	-89.753	0.0000000E+000	0.0000000E+000	0.0000000E+000	89.753	0.0000000E+000	0.0000000E+000	0.0000000E+000	-89.753	0.0000000E+000	0.0000000E+000	0.0000000E+000	-0.247037	0.0000000E+000	0.0000000E+000	0.0000000E+000	0.247037	231.93	0.247037	-0.000424727
2515.81	0.213566	0.00272372	0.213583	-0.730683	17.5067	-0.000369972	-1.0247	23226.4	3.7772	1	9	0.0101861	0.0476916	0	-0.00707632	4.68163	0.0597072	4.68201	0.730683	3777.2	296169	296194	-89.2693	0.0000000E+000	0.0000000E+000	0.0000000E+000	89.2693	0.0000000E+000	0.0000000E+000	0.0000000E+000	-89.2693	0.0000000E+000	0.0000000E+000	0.0000000E+000	-0.730683	0.0000000E+000	0.0000000E+000	0.0000000E+000	0.730683	78.4098	0.730683	-0.000374972
1047.65	0.215915	0.00292571	0.215935	-0.776326	20.8582	-0.000362707	-1.02012	51924.3	9.53207	1	9	0.0105724	0.0489612	0	-0.00804509	4.63059	0.0627458	4.63102	0.776326	9532.11	703460	703524	-89.2237	0.0000000E+000	0.0000000E+000	0.0000000E+000	89.2237	0.0000000E+000	0.0000000E+000	0.0000000E+000	-89.2237	0.0000000E+000	0.0000000E+000	0.0000000E+000	-0.776326	0.0000000E+000	0.0000000E+000	0.0000000E+000	0.776326	73.7992	0.776326	-0.000342666
436.817	0.21744	0.00283987	0.217458	-0.748268	24.2039	-0.00037448	-1.03338	128299	21.881	1	9	0.0106287	0.0488771	0	-0.00908161	4.59819	0.0600546	4.59858	0.748268	21881	1.67536e+06	1.6755e+06	-89.2517	0.0000000E+000	0.0000000E+000	0.0000000E+000	89.2517	0.0000000E+000	0.0000000E+000	0.0000000E+000	-89.2517	0.0000000E+000	0.0000000E+000	0.0000000E+000	-0.748268	0.0000000E+000	0.0000000E+000	0.0000000E+000	0.748268	76.5668	0.748268	-0.000345919
182.157	0.218827	0.00318396	0.21885	-0.833602	27.5404	-0.000387204	-1.04158	274415	58.083	1	9	0.0106379	0.0486081	0	-0.0100515	4.56886	0.0664774	4.56934	0.833602	58083.1	3.99192e+06	3.99235e+06	-89.1664	0.0000000E+000	0.0000000E+000	0.0000000E+000	89.1664	0.0000000E+000	0.0000000E+000	0.0000000E+000	-89.1664	0.0000000E+000	0.0000000E+000	0.0000000E+000	-0.833602	0.0000000E+000	0.0000000E+000	0.0000000E+000	0.833602	68.7279	0.833602	-0.000363584
75.8986	0.220514	0.00386411	0.220548	-1.0039	30.8554	-0.000392028	-1.01709	542672	166.583	1	9	0.0106428	0.0482565	0	-0.0110792	4.53347	0.079441	4.53417	1.0039	166584	9.50643e+06	9.50789e+06	-88.9961	0.0000000E+000	0.0000000E+000	0.0000000E+000	88.9961	0.0000000E+000	0.0000000E+000	0.0000000E+000	-88.9961	0.0000000E+000	0.0000000E+000	0.0000000E+000	-1.0039	0.0000000E+000	0.0000000E+000	0.0000000E+000	1.0039	57.0672	1.0039	-0.00031176
31.6296	0.222497	0.00545704	0.222564	-1.40498	34.0655	-0.0003878	-1.01704	922082	554.338	1	9	0.0106365	0.047791	0	-0.0120094	4.49174	0.110166	4.49309	1.40498	554338	2.26017e+07	2.26085e+07	-88.595	0.0000000E+000	0.0000000E+000	0.0000000E+000	88.595	0.0000000E+000	0.0000000E+000	0.0000000E+000	-88.595	0.0000000E+000	0.0000000E+000	0.0000000E+000	-1.40498	0.0000000E+000	0.0000000E+000	0.0000000E+000	1.40498	40.7725	1.40498	-0.000393563
13.1671	0.225524	0.00795847	0.225664	-2.02106	37.7436	-0.000380134	-1.0163	1.5188e+06	1889.01	1	9	0.0106395	0.0471474	0	-0.0128044	4.42861	0.156281	4.43137	2.02106	1.88901e+06	5.35299e+07	5.35632e+07	-87.9789	0.0000000E+000	0.0000000E+000	0.0000000E+000	87.9789	0.0000000E+000	0.0000000E+000	0.0000000E+000	-87.9789	0.0000000E+000	0.0000000E+000	0.0000000E+000	-2.02106	0.0000000E+000	0.0000000E+000	0.0000000E+000	2.02106	28.3376	2.02106	-5.59823e-05
5.49402	0.229906	0.012062	0.230223	-3.00327	40.7108	-0.000390482	-0.993521	2.40165e+06	6592.57	1	9	0.01064	0.0462162	0	-0.0139286	4.33766	0.227575	4.34362	3.00327	6.59256e+06	1.25656e+08	1.25829e+08	-86.9967	0.0000000E+000	0.0000000E+000	0.0000000E+000	86.9967	0.0000000E+000	0.0000000E+000	0.0000000E+000	-86.9967	0.0000000E+000	0.0000000E+000	0.0000000E+000	-3.00327	0.0000000E+000	0.0000000E+000	0.0000000E+000	3.00327	19.0603	3.00327	-0.000630182
2.28703	0.23677	0.0183374	0.237479	-4.42861	46.1102	-0.000379445	-1.00518	3.79499e+06	22627.4	1	9	0.0106397	0.0448028	0	-0.0145941	4.19833	0.325152	4.2109	4.42861	2.26274e+07	2.92162e+08	2.93037e+08	-85.5714	0.0000000E+000	0.0000000E+000	0.0000000E+000	85.5714	0.0000000E+000	0.0000000E+000	0.0000000E+000	-85.5714	0.0000000E+000	0.0000000E+000	0.0000000E+000	-4.42861	0.0000000E+000	0.0000000E+000	0.0000000E+000	4.42861	12.9119	4.42861	0.0006653
0.953907	0.247541	0.0270619	0.249016	-6.23897	59.7697	-0.000357358	-0.995005	6.16532e+06	72814.8	1	10	0.0106389	0.0427237	0	-0.0206262	3.99203	0.436421	4.01581	6.23897	7.28148e+07	6.66051e+08	6.70019e+08	-83.761	0.0000000E+000	0.0000000E+000	0.0000000E+000	83.761	0.0000000E+000	0.0000000E+000	0.0000000E+000	-83.761	0.0000000E+000	0.0000000E+000	0.0000000E+000	-6.23897	0.0000000E+000	0.0000000E+000	0.0000000E+000	6.23897	9.1472	6.23897	-0.00255313
0.397745	0.263877	0.0392016	0.266773	-8.45006	89.5826	-0.000369556	-0.951267	1.02073e+07	220412	1	10	0.0106381	0.039877	0	-0.0226179	3.70782	0.550833	3.74851	8.45006	2.20412e+08	1.48366e+09	1.49994e+09	-81.5499	0.0000000E+000	0.0000000E+000	0.0000000E+000	81.5499	0.0000000E+000	0.0000000E+000	0.0000000E+000	-81.5499	0.0000000E+000	0.0000000E+000	0.0000000E+000	-8.45006	0.0000000E+000	0.0000000E+000	0.0000000E+000	8.45006	6.73128	8.45006	-0.00166737
0.165554	0.284713	0.0572385	0.29041	-11.3672	160.784	-0.000362181	-0.885511	1.67955e+07	652447	1	10	0.010639	0.0366345	0	-0.0536383	3.37586	0.67868	3.44341	11.3672	6.52447e+08	3.24538e+09	3.31031e+09	-78.6328	0.0000000E+000	0.0000000E+000	0.0000000E+000	78.6328	0.0000000E+000	0.0000000E+000	0.0000000E+000	-78.6328	0.0000000E+000	0.0000000E+000	0.0000000E+000	-11.3672	0.0000000E+000	0.0000000E+000	0.0000000E+000	11.3672	4.97416	11.3672	-0.0141904
0.0690785	0.319534	0.0934309	0.332913	-16.2988	331.238	-0.000365996	-0.740311	2.46597e+07	1.94225e+06	1	10	0.0106426	0.031968	0	-0.0810191	2.88307	0.843	3.00378	16.2988	1.94225e+09	6.64251e+09	6.92064e+09	-73.7012	0.0000000E+000	0.0000000E+000	0.0000000E+000	73.7012	0.0000000E+000	0.0000000E+000	0.0000000E+000	-73.7012	0.0000000E+000	0.0000000E+000	0.0000000E+000	-16.2988	0.0000000E+000	0.0000000E+000	0.0000000E+000	16.2988	3.42001	16.2988	-0.00456112
0.0288152	0.40358	0.13032	0.424099	-17.8958	739.943	-0.000364408	-0.707957	4.23826e+07	4.00197e+06	1	10	0.0106394	0.0250871	0	-0.142778	2.24386	0.724563	2.35794	17.8958	4.00197e+09	1.23935e+10	1.30236e+10	-72.1042	0.0000000E+000	0.0000000E+000	0.0000000E+000	72.1042	0.0000000E+000	0.0000000E+000	0.0000000E+000	-72.1042	0.0000000E+000	0.0000000E+000	0.0000000E+000	-17.8958	0.0000000E+000	0.0000000E+000	0.0000000E+000	17.8958	3.09684	17.8958	-0.0414669
0.0120032	0.499404	0.10013	0.509343	-11.3375	1721.45	-0.000363831	-0.681796	1.32421e+08	5.1176e+06	1	10	0.0106385	0.0208867	0	-0.432304	1.925	0.385963	1.96331	11.3375	5.1176e+09	2.55242e+10	2.60322e+10	-78.6625	0.0000000E+000	0.0000000E+000	0.0000000E+000	78.6625	0.0000000E+000	0.0000000E+000	0.0000000E+000	-78.6625	0.0000000E+000	0.0000000E+000	0.0000000E+000	-11.3375	0.0000000E+000	0.0000000E+000	0.0000000E+000	11.3375	4.98754	11.3375	-0.118371
0.00500189	0.527343	0.0507146	0.529776	-5.49324	4073.97	-0.000359545	-0.673587	6.27413e+08	5.74956e+06	1	10	0.0106395	0.0200829	0	-0.772498	1.87892	0.180696	1.88759	5.49324	5.74955e+09	5.97853e+10	6.00612e+10	-84.5068	0.0000000E+000	0.0000000E+000	0.0000000E+000	84.5068	0.0000000E+000	0.0000000E+000	0.0000000E+000	-84.5068	0.0000000E+000	0.0000000E+000	0.0000000E+000	-5.49324	0.0000000E+000	0.0000000E+000	0.0000000E+000	5.49324	10.3983	5.49324	-0.0963359