File: Python/Experiments/RDE/Dicarboxylferrocene/Data/240327-CVEIS-5mM_DiCaFerrocene-1M_NaCl-ReNeutralized-453p5mVvsRef-0000RPM-Ag_AgCl_BLF8-Au_RDE_PEIS_C15.mpt
EC-Lab ASCII FILE
Nb header lines : 65

Potentio Electrochemical Impedance Spectroscopy

Run on channel : 15 (SN 19485)
User :
Electrode connection : standard
Potential control : Ewe
Ewe ctrl range : min = -1.00 V, max = 1.00 V
Ewe,I filtering : <None>
Safety Limits :
	Do not start on E overload
Channel : Floating
Acquisition started on : 03/27/2024 15:36:45.743
Loaded Setting File :  C:\Data\mathias\GoldElectrode\240327-CVEIS-5mM_DiCaFerrocene-1M_NaCl-453p5mVvsRef-2000RPM-Ag_AgCl_BLF8-Au_RDE_02_PEIS_C15.mpr
Saved on :
	File : 240327-CVEIS-5mM_DiCaFerrocene-1M_NaCl-ReNeutralized-453p5mVvsRef-2000RPM-Ag_AgCl_BLF8-Au_RDE_PEIS_C15.mpr
	Directory : C:\Data\mathias\GoldElectrode\
	Host : 192.168.0.1
Device : VMP-300 (SN 0826)
Address : USB
EC-Lab for windows v11.52 (software)
Internet server v11.52 (firmware)
Command interpretor v11.52 (firmware)
Electrode material :
Initial state :
Electrolyte :
Comments :
Cable : special
Electrode surface area : 0.001 cm²
Characteristic mass : 0.001 g
Equivalent Weight : 0.000 g/eq.
Density : 0.000 g/cm3
Volume (V) : 0.001 cm³
Cycle Definition : Charge/Discharge alternance
Mode                Multi sine
E (V)               0.4535
vs.                 Ref
tE (h:m:s)          0:00:0.0000
record              0
dI                  0.000
unit dI             mA
dt (s)              0.000
fi                  400.000
unit fi             kHz
ff                  100.000
unit ff             mHz
Nd                  10
Points              per decade
spacing             Logarithmic
Va (mV)             5.0
pw                  0.10
Na                  3
corr                0
E range min (V)     -1.000
E range max (V)     1.000
I Range             Auto
Bandwidth           8
nc cycles           2
goto Ns'            0
nr cycles           0
inc. cycle          1

freq/Hz	Re(Z)/Ohm	-Im(Z)/Ohm	|Z|/Ohm	Phase(Z)/deg	time/s	<Ewe>/V	<I>/mA	Cs/µF	Cp/µF	cycle number	I Range	|Ewe|/V	|I|/A	Ns	(Q-Qo)/mA.h	Re(Y)/Ohm-1	Im(Y)/Ohm-1	|Y|/Ohm-1	Phase(Y)/deg	Re(C)/nF	Im(C)/nF	|C|/nF	Phase(C)/deg	Re(M)	Im(M)	|M|	Phase(M)/deg	Re(Permittivity)	Im(Permittivity)	|Permittivity|	Phase(Permittivity)/deg	Re(Resistivity)/Ohm.cm	Im(Resistivity)/Ohm.cm	|Resistivity|/Ohm.cm	Phase(Resistivity)/deg	Re(Conductivity)/mS/cm	Im(Conductivity)/mS/cm	|Conductivity|/mS/cm	Phase(Conductivity)/deg	Tan(Delta)	Loss Angle(Delta)/deg	dq/mA.h
399996	13.2676	3.43246	13.7044	-14.505	2.18548	0.453382	0.0170625	0.11592	0.00727196	1	38	0.00496757	0.000362481	0	1.8758e-05	0.0706436	0.0182763	0.0729694	14.505	7.27196	28.1084	29.0339	-75.495	0.0000000E+000	0.0000000E+000	0.0000000E+000	75.495	0.0000000E+000	0.0000000E+000	0.0000000E+000	-75.495	0.0000000E+000	0.0000000E+000	0.0000000E+000	-14.505	0.0000000E+000	0.0000000E+000	0.0000000E+000	14.505	3.86532	75.495	1.8758e-05
50326.6	14.1629	2.22269	14.3362	-8.91912	7.14548	0.453357	0.00694472	1.4228	0.0342004	1	38	0.00509655	0.000355501	0	3.08783e-05	0.0689098	0.0108146	0.0697533	8.91912	34.2004	217.923	220.591	-81.0809	0.0000000E+000	0.0000000E+000	0.0000000E+000	81.0809	0.0000000E+000	0.0000000E+000	0.0000000E+000	-81.0809	0.0000000E+000	0.0000000E+000	0.0000000E+000	-8.91912	0.0000000E+000	0.0000000E+000	0.0000000E+000	8.91912	6.37195	81.0809	1.02188e-06
6332.63	18.0605	7.30766	19.4829	-22.0292	12.0699	0.453232	0.00463591	3.4392	0.483844	1	38	0.00532932	0.000273538	0	3.8834e-05	0.0475797	0.0192517	0.0513269	22.0292	483.844	1195.8	1289.98	-67.9707	0.0000000E+000	0.0000000E+000	0.0000000E+000	67.9707	0.0000000E+000	0.0000000E+000	0.0000000E+000	-67.9707	0.0000000E+000	0.0000000E+000	0.0000000E+000	-22.0292	0.0000000E+000	0.0000000E+000	0.0000000E+000	22.0292	2.47145	67.9707	9.71374e-07
796.787	34.366	21.7988	40.6966	-32.3875	18.7003	0.45323	0.0101983	9.16315	2.62903	1	39	0.00495706	0.000121805	0	5.05889e-05	0.0207498	0.0131619	0.0245721	32.3875	2629.03	4144.68	4908.17	-57.6125	0.0000000E+000	0.0000000E+000	0.0000000E+000	57.6125	0.0000000E+000	0.0000000E+000	0.0000000E+000	-57.6125	0.0000000E+000	0.0000000E+000	0.0000000E+000	-32.3875	0.0000000E+000	0.0000000E+000	0.0000000E+000	32.3875	1.57651	57.6125	1.90586e-06
100.224	73.2099	39.3911	83.1345	-28.2828	24.8503	0.453221	0.00978078	40.3133	9.05068	1	39	0.00475948	5.72504e-05	0	6.72823e-05	0.0105927	0.00569948	0.0120287	28.2828	9050.68	16821.1	19101.4	-61.7172	0.0000000E+000	0.0000000E+000	0.0000000E+000	61.7172	0.0000000E+000	0.0000000E+000	0.0000000E+000	-61.7172	0.0000000E+000	0.0000000E+000	0.0000000E+000	-28.2828	0.0000000E+000	0.0000000E+000	0.0000000E+000	28.2828	1.85854	61.7172	1.77852e-06
12.6144	135.533	82.6681	158.755	-31.3811	31.3096	0.453238	0.00934371	152.622	41.3847	1	40	0.00477885	3.01021e-05	0	8.34578e-05	0.00537762	0.00328008	0.00629902	31.3811	41384.7	67849.3	79474.6	-58.6189	0.0000000E+000	0.0000000E+000	0.0000000E+000	58.6189	0.0000000E+000	0.0000000E+000	0.0000000E+000	-58.6189	0.0000000E+000	0.0000000E+000	0.0000000E+000	-31.3811	0.0000000E+000	0.0000000E+000	0.0000000E+000	31.3811	1.63948	58.6189	2.05142e-06
1.60158	301.151	241.887	386.266	-38.7717	63.2136	0.453209	0.0085233	410.828	161.106	1	40	0.00500593	1.29598e-05	0	0.000157417	0.00201842	0.00162121	0.00258889	38.7717	161106	200578	257268	-51.2283	0.0000000E+000	0.0000000E+000	0.0000000E+000	51.2283	0.0000000E+000	0.0000000E+000	0.0000000E+000	-51.2283	0.0000000E+000	0.0000000E+000	0.0000000E+000	-38.7717	0.0000000E+000	0.0000000E+000	0.0000000E+000	38.7717	1.24501	51.2283	0.000000000000000E+000
0.100099	922.34	896.803	1286.45	-44.1957	63.2202	0.453209	0.0085233	1772.94	861.588	1	40	0.00500268	3.88873e-06	0	0.000157419	0.000557317	0.000541886	0.00077733	44.1957	861588	886123	1.23594e+06	-45.8043	0.0000000E+000	0.0000000E+000	0.0000000E+000	45.8043	0.0000000E+000	0.0000000E+000	0.0000000E+000	-45.8043	0.0000000E+000	0.0000000E+000	0.0000000E+000	-44.1957	0.0000000E+000	0.0000000E+000	0.0000000E+000	44.1957	1.02848	45.8043	0.000000000000000E+000
63362.9	14.0634	2.14818	14.2265	-8.68477	69.7195	0.453374	0.00413692	1.16927	0.0266598	2	38	0.00515767	0.000362539	0	0.00016772	0.0694853	0.0106138	0.0702913	8.68477	26.6599	174.533	176.558	-81.3152	0.0000000E+000	0.0000000E+000	0.0000000E+000	81.3152	0.0000000E+000	0.0000000E+000	0.0000000E+000	-81.3152	0.0000000E+000	0.0000000E+000	0.0000000E+000	-8.68477	0.0000000E+000	0.0000000E+000	0.0000000E+000	8.68477	6.54667	81.3152	2.67365e-07
7967.67	17.492	6.83614	18.7804	-21.3463	74.6236	0.45322	0.00438083	2.92199	0.387159	2	38	0.00513823	0.000273595	0	0.000173343	0.0495941	0.0193821	0.053247	21.3463	387.159	990.647	1063.61	-68.6537	0.0000000E+000	0.0000000E+000	0.0000000E+000	68.6537	0.0000000E+000	0.0000000E+000	0.0000000E+000	-68.6537	0.0000000E+000	0.0000000E+000	0.0000000E+000	-21.3463	0.0000000E+000	0.0000000E+000	0.0000000E+000	21.3463	2.55876	68.6537	1.02919e-06
1002.75	32.4668	21.3556	38.8607	-33.3356	81.1402	0.453209	0.00820196	7.43215	2.24449	2	39	0.0050059	0.000128816	0	0.000183489	0.021499	0.0141413	0.0257329	33.3356	2244.49	3412.28	4084.28	-56.6644	0.0000000E+000	0.0000000E+000	0.0000000E+000	56.6644	0.0000000E+000	0.0000000E+000	0.0000000E+000	-56.6644	0.0000000E+000	0.0000000E+000	0.0000000E+000	-33.3356	0.0000000E+000	0.0000000E+000	0.0000000E+000	33.3356	1.52029	56.6644	1.58957e-06
126.171	72.0096	39.2843	82.0283	-28.6144	87.2909	0.453254	0.0083246	32.11	7.36465	2	39	0.00477108	5.81638e-05	0	0.000197623	0.0107019	0.00583837	0.0121909	28.6144	7364.65	13499.7	15377.9	-61.3856	0.0000000E+000	0.0000000E+000	0.0000000E+000	61.3856	0.0000000E+000	0.0000000E+000	0.0000000E+000	-61.3856	0.0000000E+000	0.0000000E+000	0.0000000E+000	-28.6144	0.0000000E+000	0.0000000E+000	0.0000000E+000	28.6144	1.83304	61.3856	1.53254e-06
15.879	132.221	77.8249	153.424	-30.481	93.6377	0.453273	0.00844006	128.788	33.138	2	40	0.00477004	3.10905e-05	0	0.000211754	0.00561709	0.00330621	0.00651787	30.481	33138	56299.8	65328.3	-59.519	0.0000000E+000	0.0000000E+000	0.0000000E+000	59.519	0.0000000E+000	0.0000000E+000	0.0000000E+000	-59.519	0.0000000E+000	0.0000000E+000	0.0000000E+000	-30.481	0.0000000E+000	0.0000000E+000	0.0000000E+000	30.481	1.69895	59.519	1.93839e-06
2.00197	281.065	206.183	348.581	-36.263	126.34	0.453223	0.0083406	385.575	134.898	2	40	0.00500559	1.43599e-05	0	0.000284933	0.00231312	0.00169686	0.00286877	36.263	134898	183891	228065	-53.737	0.0000000E+000	0.0000000E+000	0.0000000E+000	53.737	0.0000000E+000	0.0000000E+000	0.0000000E+000	-53.737	0.0000000E+000	0.0000000E+000	0.0000000E+000	-36.263	0.0000000E+000	0.0000000E+000	0.0000000E+000	36.263	1.36318	53.737	0.000000000000000E+000
0.200197	721.576	657.763	976.383	-42.3512	126.346	0.453223	0.0083406	1208.63	548.518	2	40	0.00500391	5.12494e-06	0	0.000284935	0.000756906	0.000689968	0.00102419	42.3512	548518	601733	814220	-47.6488	0.0000000E+000	0.0000000E+000	0.0000000E+000	47.6488	0.0000000E+000	0.0000000E+000	0.0000000E+000	-47.6488	0.0000000E+000	0.0000000E+000	0.0000000E+000	-42.3512	0.0000000E+000	0.0000000E+000	0.0000000E+000	42.3512	1.09702	47.6488	1.87371e-09
79767.3	13.9274	2.0081	14.0715	-8.20452	132.14	0.453368	0.00473832	0.993598	0.0202349	3	38	0.00516505	0.000367059	0	0.000296181	0.0703385	0.0101416	0.0710659	8.20452	20.2349	140.342	141.793	-81.7955	0.0000000E+000	0.0000000E+000	0.0000000E+000	81.7955	0.0000000E+000	0.0000000E+000	0.0000000E+000	-81.7955	0.0000000E+000	0.0000000E+000	0.0000000E+000	-8.20452	0.0000000E+000	0.0000000E+000	0.0000000E+000	8.20452	6.93564	81.7955	1.0974e-06
10039.3	16.8534	6.23433	17.9695	-20.3002	136.966	0.453378	0.00489659	2.54287	0.306077	3	38	0.00536112	0.000298345	0	0.00030153	0.0521932	0.0193071	0.0556498	20.3002	306.077	827.425	882.222	-69.6998	0.0000000E+000	0.0000000E+000	0.0000000E+000	69.6998	0.0000000E+000	0.0000000E+000	0.0000000E+000	-69.6998	0.0000000E+000	0.0000000E+000	0.0000000E+000	-20.3002	0.0000000E+000	0.0000000E+000	0.0000000E+000	20.3002	2.70332	69.6998	7.63515e-07
1262.98	30.3503	20.2528	36.4872	-33.7153	143.428	0.453226	0.00823756	6.22213	1.91703	3	39	0.00508594	0.00013939	0	0.000310367	0.0227972	0.0152126	0.0274069	33.7153	1917.03	2872.8	3453.69	-56.2847	0.0000000E+000	0.0000000E+000	0.0000000E+000	56.2847	0.0000000E+000	0.0000000E+000	0.0000000E+000	-56.2847	0.0000000E+000	0.0000000E+000	0.0000000E+000	-33.7153	0.0000000E+000	0.0000000E+000	0.0000000E+000	33.7153	1.49857	56.2847	2.15895e-06
158.831	69.4806	38.953	79.6548	-29.2764	149.584	0.453272	0.00836467	25.7244	6.15181	3	39	0.00477912	5.99979e-05	0	0.000324387	0.0109506	0.00613928	0.0125542	29.2764	6151.81	10973	12579.8	-60.7236	0.0000000E+000	0.0000000E+000	0.0000000E+000	60.7236	0.0000000E+000	0.0000000E+000	0.0000000E+000	-60.7236	0.0000000E+000	0.0000000E+000	0.0000000E+000	-29.2764	0.0000000E+000	0.0000000E+000	0.0000000E+000	29.2764	1.7837	60.7236	1.6194e-06
19.9808	128.821	72.8941	148.015	-29.5037	155.966	0.453271	0.00859355	109.273	26.5027	3	40	0.00478839	3.23508e-05	0	0.000338728	0.00587999	0.00332724	0.00675609	29.5037	26502.7	46836.4	53814.9	-60.4963	0.0000000E+000	0.0000000E+000	0.0000000E+000	60.4963	0.0000000E+000	0.0000000E+000	0.0000000E+000	-60.4963	0.0000000E+000	0.0000000E+000	0.0000000E+000	-29.5037	0.0000000E+000	0.0000000E+000	0.0000000E+000	29.5037	1.76723	60.4963	2.00678e-06
2.50247	266.062	197.849	331.562	-36.6353	189.315	0.453205	0.00814579	321.453	114.461	3	40	0.00500391	1.5092e-05	0	0.000413039	0.00242022	0.00179972	0.00301603	36.6353	114461	153924	191817	-53.3647	0.0000000E+000	0.0000000E+000	0.0000000E+000	53.3647	0.0000000E+000	0.0000000E+000	0.0000000E+000	-53.3647	0.0000000E+000	0.0000000E+000	0.0000000E+000	-36.6353	0.0000000E+000	0.0000000E+000	0.0000000E+000	36.6353	1.34477	53.3647	0.000000000000000E+000
0.300296	643.421	559.475	852.645	-41.008	189.32	0.453205	0.00814579	947.306	407.864	3	40	0.00501098	5.87698e-06	0	0.000413039	0.000885033	0.000769563	0.00117282	41.008	407864	469062	621588	-48.992	0.0000000E+000	0.0000000E+000	0.0000000E+000	48.992	0.0000000E+000	0.0000000E+000	0.0000000E+000	-48.992	0.0000000E+000	0.0000000E+000	0.0000000E+000	-41.008	0.0000000E+000	0.0000000E+000	0.0000000E+000	41.008	1.15005	48.992	0.000000000000000E+000
0.100099	972.362	935.859	1349.56	-43.9041	189.322	0.453205	0.00814579	1698.95	816.988	3	40	0.00500371	3.70765e-06	0	0.000413041	0.000533878	0.000513835	0.000740981	43.9041	816988	848855	1.17814e+06	-46.0959	0.0000000E+000	0.0000000E+000	0.0000000E+000	46.0959	0.0000000E+000	0.0000000E+000	0.0000000E+000	-46.0959	0.0000000E+000	0.0000000E+000	0.0000000E+000	-43.9041	0.0000000E+000	0.0000000E+000	0.0000000E+000	43.9041	1.03901	46.0959	0.000000000000000E+000