File: Python/Experiments/RDE/Dicarboxylferrocene/Data/240327-CVEIS-5mM_DiCaFerrocene-1M_NaCl-ReNeutralized-453p5mVvsRef-2000RPM-Ag_AgCl_BLF8-Au_RDE_01_CV_C15.mpt
EC-Lab ASCII FILE
Nb header lines : 59

Cyclic Voltammetry

Run on channel : 15 (SN 19485)
User :
Electrode connection : standard
Potential control : Ewe
Ewe ctrl range : min = -1.00 V, max = 1.00 V
Ewe,I filtering : <None>
Safety Limits :
	Do not start on E overload
Channel : Floating
Acquisition started on : 03/27/2024 16:11:02.884
Loaded Setting File :  C:\Data\mathias\GoldElectrode\240327-CVEIS-5mM_DiCaFerrocene-1M_NaCl-2000RPM-Ag_AgCl_BLF8-Au_RDE.mps
Saved on :
	File : 240327-CVEIS-5mM_DiCaFerrocene-1M_NaCl-ReNeutralized-453p5mVvsRef-2000RPM-Ag_AgCl_BLF8-Au_RDE_01_CV_C15.mpr
	Directory : C:\Data\mathias\GoldElectrode\
	Host : 192.168.0.1
Device : VMP-300 (SN 0826)
Address : USB
EC-Lab for windows v11.52 (software)
Internet server v11.52 (firmware)
Command interpretor v11.52 (firmware)
Electrode material :
Initial state :
Electrolyte :
Comments :
Cable : special
Electrode surface area : 0.001 cm²
Characteristic mass : 0.001 g
Equivalent Weight : 0.000 g/eq.
Density : 0.000 g/cm3
Volume (V) : 0.001 cm³
Cycle Definition : Charge/Discharge alternance
Ei (V)              0.000
vs.                 Eoc
dE/dt               20.000
dE/dt unit          mV/s
E1 (V)              0.700
vs.                 Ref
Step percent        50
N                   10
E range min (V)     -1.000
E range max (V)     1.000
I Range             Auto
I Range min         Unset
I Range max         Unset
I Range init        Unset
Bandwidth           8
E2 (V)              0.000
vs.                 Ref
nc cycles           1
Reverse Scan        1
Ef (V)              0.000
vs.                 Eoc

mode	ox/red	error	control changes	counter inc.	time/s	control/V	Ewe/V	<I>/mA	cycle number	(Q-Qo)/C	I Range	step time/s	P/W
2	1	1	1	0	0.000000000000000E+000	-0.113177	-0.113091	0.000338195	1	0.0000000E+000	43	0.000000000000000E+000	-3.82469e-08
2	1	0	1	0	1.2382	-0.0884137	-0.0880488	0.000246092	1	2.56473e-07	43	1.2244	-2.16681e-08
2	1	0	1	0	2.4876	-0.0634257	-0.0630809	0.000258976	1	5.71666e-07	43	2.4738	-1.63364e-08
2	1	0	1	0	3.737	-0.0384377	-0.0381823	0.000323504	1	9.35201e-07	43	3.7232	-1.23521e-08
2	1	0	1	0	4.9864	-0.0134496	-0.013248	0.000357976	1	1.35719e-06	43	4.9726	-4.74247e-09
2	1	0	1	0	6.2358	0.0115384	0.0116962	0.000446382	1	1.85473e-06	43	6.222	5.22096e-09
2	1	0	1	0	7.4852	0.0365264	0.0367469	0.000530293	1	2.45842e-06	43	7.4714	1.94866e-08
2	1	0	1	0	8.7346	0.0615145	0.0618197	0.000708022	1	3.22393e-06	43	8.7208	4.37697e-08
2	1	0	1	0	9.984	0.0865025	0.0866954	0.00094034	1	4.24513e-06	43	9.9702	8.15232e-08
2	1	0	1	0	11.2634	0.11209	0.112274	0.00131269	1	5.69029e-06	42	11.2496	1.47381e-07
2	1	0	1	0	12.5128	0.137078	0.137475	0.00179973	1	7.63506e-06	42	12.499	2.47418e-07
2	1	0	1	0	13.7622	0.162066	0.162252	0.00231039	1	1.02063e-05	42	13.7484	3.74866e-07
2	1	0	1	0	15.0116	0.187054	0.187303	0.00282441	1	1.34129e-05	42	14.9978	5.29022e-07
2	1	0	1	0	16.261	0.212042	0.212292	0.00329827	1	1.72215e-05	42	16.2472	7.00196e-07
2	1	0	1	0	17.5104	0.23703	0.237246	0.00407749	1	2.17708e-05	42	17.4966	9.67367e-07
2	1	0	1	0	18.7598	0.262018	0.262329	0.00558767	1	2.76824e-05	42	18.746	1.46581e-06
2	1	0	1	0	20.0092	0.287006	0.287015	0.00860023	1	3.63553e-05	42	19.9954	2.4684e-06
2	1	0	1	0	21.2886	0.312594	0.312806	0.0134389	1	5.02856e-05	41	21.2748	4.20376e-06
2	1	0	1	0	22.538	0.337582	0.337768	0.0195607	1	7.08485e-05	41	22.5242	6.60698e-06
2	1	0	1	0	23.7874	0.36257	0.362875	0.0276685	1	0.000100052	41	23.7736	1.00402e-05
2	1	0	1	0	25.0368	0.387558	0.387789	0.0426386	1	0.000142936	41	25.023	1.65348e-05
2	1	0	1	0	26.2862	0.412546	0.412742	0.0714642	1	0.000212331	41	26.2724	2.94963e-05
2	1	0	1	0	27.5656	0.438134	0.438286	0.122242	1	0.000334059	40	27.5518	5.35769e-05
2	1	0	1	0	28.815	0.463122	0.463297	0.180939	1	0.000523131	40	28.8012	8.38282e-05
2	1	0	1	0	30.0644	0.48811	0.488279	0.22912	1	0.00078135	40	30.0506	0.000111874
2	1	0	1	0	31.3138	0.513098	0.513239	0.259926	1	0.00108932	40	31.3	0.000133404
2	1	0	1	0	32.5632	0.538086	0.538283	0.277068	1	0.00142603	40	32.5494	0.000149141
2	1	0	1	0	33.8126	0.563074	0.563337	0.286918	1	0.00177866	40	33.7988	0.000161632
2	1	0	1	0	35.062	0.588062	0.588144	0.292595	1	0.00214109	40	35.0482	0.000172088
2	1	0	1	0	36.3114	0.61305	0.613067	0.29702	1	0.00250973	40	36.2976	0.000182093
2	1	0	1	0	37.5608	0.638038	0.638173	0.299933	1	0.0028828	40	37.547	0.000191409
2	1	0	1	0	38.8102	0.663026	0.663177	0.304508	1	0.0032604	40	38.7964	0.000201943
2	1	0	1	0	40.0596	0.688014	0.688147	0.306435	1	0.00364152	40	40.0458	0.000210872
2	1	0	1	0	41.2721	0.687714	0.687869	0.303305	1	0.00401241	40	41.2583	0.000208634
2	1	0	1	0	42.5215	0.662726	0.662938	0.298248	1	0.00438831	40	42.5077	0.00019772
2	1	0	1	0	43.7709	0.637738	0.637862	0.293839	1	0.00475875	40	43.7571	0.000187429
2	1	0	1	0	45.0203	0.61275	0.613103	0.288877	1	0.00512342	40	45.0065	0.000177111
2	1	0	1	0	46.2697	0.587762	0.587934	0.282147	1	0.00548083	40	46.2559	0.000165884
2	1	0	1	0	47.5191	0.562774	0.562979	0.275708	1	0.00582951	40	47.5053	0.000155218
2	1	0	1	0	48.7685	0.537786	0.538016	0.263297	1	0.00616665	40	48.7547	0.000141658
2	1	0	1	0	50.0179	0.512798	0.512901	0.245454	1	0.00648546	40	50.0041	0.000125894
2	1	0	1	0	51.2673	0.48781	0.487912	0.213986	1	0.00677309	40	51.2535	0.000104406
2	1	0	1	0	52.5167	0.462822	0.463102	0.165979	1	0.00701155	40	52.5029	7.68651e-05
2	1	0	1	0	53.7661	0.437834	0.437928	0.110279	1	0.00718355	40	53.7523	4.8294e-05
2	1	0	1	0	55.0155	0.412846	0.413096	0.064564	1	0.0072904	40	55.0017	2.66711e-05
2	1	0	1	0	56.2949	0.387258	0.387394	0.0367424	1	0.00735293	41	56.2811	1.42338e-05
2	1	0	1	0	57.5443	0.36227	0.362559	0.0229519	1	0.00738932	41	57.5305	8.32141e-06
2	1	0	1	0	58.7937	0.337282	0.337526	0.0154148	1	0.00741297	41	58.7799	5.20291e-06
2	1	0	1	0	60.0431	0.312294	0.312432	0.00934694	1	0.00742831	41	60.0293	2.92028e-06
2	1	0	1	0	61.2925	0.287306	0.287407	0.00484446	1	0.007437	41	61.2787	1.39233e-06
2	1	0	1	0	62.5719	0.261719	0.261876	0.00189975	1	0.00744109	42	62.5581	4.97501e-07
2	1	0	1	0	63.8213	0.236731	0.236994	0.000524905	1	0.00744246	42	63.8075	1.24399e-07
2	0	0	1	0	65.1006	0.211143	0.211283	-0.000204242	1	0.00744258	43	0.4497	-4.3153e-08
2	0	0	1	0	66.35	0.186155	0.186426	-0.000544619	1	0.0074421	43	1.6991	-1.01531e-07
2	0	0	1	0	67.5994	0.161168	0.161264	-0.000687011	1	0.00744132	43	2.9485	-1.1079e-07
2	0	0	1	0	68.8488	0.13618	0.136314	-0.00078281	1	0.00744039	43	4.1979	-1.06708e-07
2	0	0	1	0	70.0982	0.111192	0.111441	-0.000808656	1	0.00743939	43	5.4473	-9.01176e-08
2	0	0	1	0	71.3476	0.0862044	0.0864604	-0.000826056	1	0.00743837	43	6.6967	-7.14211e-08
2	0	0	1	0	72.5971	0.0612146	0.0613433	-0.000798552	1	0.00743735	43	7.9462	-4.89859e-08
2	0	0	1	0	73.8465	0.0362266	0.0365116	-0.000796648	1	0.00743635	43	9.1956	-2.90869e-08
2	0	0	1	0	75.0959	0.0112386	0.0113628	-0.000763395	1	0.00743538	43	10.445	-8.67427e-09
2	1	0	1	1	76.3809	0.014487	0.0147465	0.000176814	2	0.00743498	43	0.4798	2.60739e-09
2	1	0	1	1	77.6303	0.039475	0.0398452	0.000377805	2	0.00743534	43	1.7292	1.50537e-08
2	1	0	1	1	78.8797	0.0644631	0.0646821	0.000486658	2	0.00743589	43	2.9786	3.1478e-08
2	1	0	1	1	80.1291	0.0894511	0.0896278	0.000610266	2	0.00743657	43	4.228	5.46968e-08
2	1	0	1	1	81.3785	0.114439	0.114613	0.000741415	2	0.00743742	43	5.4774	8.49756e-08
2	1	0	1	1	82.6279	0.139427	0.139721	0.000957411	2	0.00743847	43	6.7268	1.3377e-07
2	1	0	1	1	83.9073	0.165015	0.165222	0.00125912	2	0.00743986	42	8.0062	2.08035e-07
2	1	0	1	1	85.1567	0.190003	0.190171	0.00157804	2	0.00744163	42	9.2556	3.00098e-07
2	1	0	1	1	86.4061	0.214991	0.215238	0.00213695	2	0.00744393	42	10.505	4.59953e-07
2	1	0	1	1	87.6555	0.239979	0.240286	0.00295884	2	0.00744704	42	11.7544	7.10968e-07
2	1	0	1	1	88.9049	0.264967	0.265204	0.00473339	2	0.00745171	42	13.0038	1.25532e-06
2	1	0	1	1	90.1543	0.289955	0.290111	0.00789577	2	0.0074594	42	14.2532	2.29065e-06
2	1	0	1	1	91.4336	0.315541	0.315721	0.0129638	2	0.00747261	41	15.5325	4.09294e-06
2	1	0	1	1	92.6831	0.340531	0.340815	0.0191617	2	0.00749264	41	16.782	6.53061e-06
2	1	0	1	1	93.9325	0.365519	0.365781	0.0277052	2	0.00752161	41	18.0314	1.01341e-05
2	1	0	1	1	95.1819	0.390507	0.390922	0.0433623	2	0.00756506	41	19.2808	1.69513e-05
2	1	0	1	1	96.4313	0.415495	0.415777	0.0746848	2	0.00763694	41	20.5302	3.10522e-05
2	1	0	1	1	97.7106	0.441082	0.441294	0.12506	2	0.00776349	40	21.8095	5.51882e-05
2	1	0	1	1	98.96	0.46607	0.466277	0.182944	2	0.00795729	40	23.0589	8.53027e-05
2	1	0	1	1	100.209	0.491058	0.491344	0.228131	2	0.00821632	40	24.3083	0.000112091
2	1	0	1	1	101.459	0.516045	0.516136	0.255845	2	0.00852065	40	25.5577	0.000132051
2	1	0	1	1	102.708	0.541033	0.541269	0.27175	2	0.00885142	40	26.8071	0.00014709
2	1	0	1	1	103.958	0.566021	0.566263	0.280146	2	0.00919639	40	28.0565	0.000158637
2	1	0	1	1	105.207	0.591011	0.591282	0.286349	2	0.00955101	40	29.306	0.000169313
2	1	0	1	1	106.456	0.615999	0.616364	0.291004	2	0.00991179	40	30.5554	0.000179365
2	1	0	1	1	107.706	0.640987	0.641179	0.294057	2	0.0102777	40	31.8048	0.000188543
2	1	0	1	1	108.955	0.665975	0.666166	0.298027	2	0.0106484	40	33.0542	0.000198535
2	1	0	1	1	110.205	0.690963	0.69107	0.29929	2	0.0110224	40	34.3036	0.00020683
2	1	0	1	1	111.42	0.684716	0.684946	0.297184	2	0.0113867	40	35.5185	0.000203555
2	1	0	1	1	112.669	0.659728	0.659916	0.2924	2	0.0117552	40	36.7679	0.00019296
2	1	0	1	1	113.918	0.63474	0.634911	0.288193	2	0.0121186	40	38.0173	0.000182977
2	1	0	1	1	115.168	0.609752	0.609928	0.283222	2	0.0124754	40	39.2667	0.000172745
2	1	0	1	1	116.417	0.584764	0.584962	0.276708	2	0.0128249	40	40.5161	0.000161863
2	1	0	1	1	117.667	0.559776	0.559987	0.268618	2	0.0131649	40	41.7655	0.000150423
2	1	0	1	1	118.916	0.534788	0.534964	0.255859	2	0.0134923	40	43.0149	0.000136875
2	1	0	1	1	120.165	0.5098	0.50988	0.235813	2	0.0138	40	44.2643	0.000120236
2	1	0	1	1	121.415	0.484812	0.484981	0.202662	2	0.0140754	40	45.5137	9.82869e-05
2	1	0	1	1	122.664	0.459824	0.460067	0.155351	2	0.0143003	40	46.7631	7.14719e-05
2	1	0	1	1	123.914	0.434836	0.435095	0.101534	2	0.0144601	40	48.0125	4.41768e-05
2	1	0	1	1	125.163	0.409848	0.41003	0.0593095	2	0.0145583	40	49.2619	2.43187e-05
2	1	0	1	1	126.442	0.38426	0.3845	0.0338539	2	0.0146158	41	50.5413	1.30168e-05
2	1	0	1	1	127.692	0.359272	0.35946	0.021606	2	0.0146496	41	51.7907	7.76647e-06
2	1	0	1	1	128.941	0.334284	0.334479	0.0142884	2	0.0146717	41	53.0401	4.77917e-06
2	1	0	1	1	130.191	0.309296	0.309529	0.00861375	2	0.0146858	41	54.2895	2.66621e-06
2	1	0	1	1	131.47	0.283708	0.283837	0.00405301	2	0.0146937	42	55.5689	1.15039e-06
2	1	0	1	1	132.719	0.25872	0.258852	0.00155702	2	0.0146971	42	56.8183	4.03039e-07
2	1	0	1	1	133.999	0.233132	0.233306	0.000225758	2	0.0146981	43	58.0977	5.26707e-08
2	0	0	1	1	135.248	0.208144	0.208372	-0.000357268	2	0.014698	43	0.7996	-7.44446e-08
2	0	0	1	1	136.498	0.183156	0.183441	-0.000627227	2	0.0146973	43	2.049	-1.15059e-07
2	0	0	1	1	137.747	0.158168	0.158319	-0.000775413	2	0.0146964	43	3.2984	-1.22763e-07
2	0	0	1	1	138.996	0.13318	0.133495	-0.000835521	2	0.0146954	43	4.5478	-1.11538e-07
2	0	0	1	1	140.246	0.108192	0.108545	-0.000861236	2	0.0146944	43	5.7972	-9.34832e-08
2	0	0	1	1	141.495	0.0832041	0.0833873	-0.000848699	2	0.0146933	43	7.0466	-7.07707e-08
2	0	0	1	1	142.745	0.058216	0.0584321	-0.000843356	2	0.0146922	43	8.296	-4.92791e-08
2	0	0	1	1	143.994	0.033228	0.03346	-0.00080885	2	0.0146912	43	9.5454	-2.70641e-08
2	0	0	1	1	145.243	0.00824	0.00864528	-0.000795935	2	0.0146902	43	10.7948	-6.88108e-09
2	0	0	1	0	146.468	-0.0162483	-0.0161067	-0.000768713	2	0.0146892	43	12.0198	1.23814e-08
2	0	0	1	0	147.718	-0.0412363	-0.0409129	-0.000761884	2	0.0146883	43	13.2692	3.11709e-08
2	0	0	1	0	148.967	-0.0662244	-0.0657136	-0.000753826	2	0.0146873	43	14.5186	4.95366e-08
2	0	0	1	0	150.217	-0.0912124	-0.0910456	-0.000744283	2	0.0146864	43	15.768	6.77637e-08
2	0	0	0	0	151.371	-0.114326	-0.11408	-0.000715199	2	0.0146856	43	16.922	8.15898e-08