File: Python/Experiments/RDE/Dicarboxylferrocene/Data/240327-CVEIS-5mM_DiCaFerrocene-1M_NaCl-ReNeutralized-0000RPM-Ag_AgCl_BLF8-Au_RDE_CV_C15.mpt
EC-Lab ASCII FILE
Nb header lines : 59

Cyclic Voltammetry

Run on channel : 15 (SN 19485)
User :
Electrode connection : standard
Potential control : Ewe
Ewe ctrl range : min = -1.00 V, max = 1.00 V
Ewe,I filtering : <None>
Safety Limits :
	Do not start on E overload
Channel : Floating
Acquisition started on : 03/27/2024 15:28:52.448
Loaded Setting File :  C:\Data\mathias\GoldElectrode\240327-CVEIS-5mM_DiCaFerrocene-1M_NaCl-0000RPM-Ag_AgCl_BLF8-Au_RDE.mps
Saved on :
	File : 240327-CVEIS-5mM_DiCaFerrocene-1M_NaCl-ReNeutralized-0000RPM-Ag_AgCl_BLF8-Au_RDE_CV_C15.mpr
	Directory : C:\Data\mathias\GoldElectrode\
	Host : 192.168.0.1
Device : VMP-300 (SN 0826)
Address : USB
EC-Lab for windows v11.52 (software)
Internet server v11.52 (firmware)
Command interpretor v11.52 (firmware)
Electrode material :
Initial state :
Electrolyte :
Comments :
Cable : special
Electrode surface area : 0.001 cm²
Characteristic mass : 0.001 g
Equivalent Weight : 0.000 g/eq.
Density : 0.000 g/cm3
Volume (V) : 0.001 cm³
Cycle Definition : Charge/Discharge alternance
Ei (V)              0.000
vs.                 Eoc
dE/dt               20.000
dE/dt unit          mV/s
E1 (V)              0.700
vs.                 Ref
Step percent        50
N                   10
E range min (V)     -1.000
E range max (V)     1.000
I Range             Auto
I Range min         Unset
I Range max         Unset
I Range init        Unset
Bandwidth           8
E2 (V)              0.000
vs.                 Ref
nc cycles           2
Reverse Scan        1
Ef (V)              0.000
vs.                 Eoc

mode	ox/red	error	control changes	counter inc.	time/s	control/V	Ewe/V	<I>/mA	cycle number	(Q-Qo)/C	I Range	step time/s	P/W
2	1	1	0	0	0.000000000000000E+000	-0.0134246	-0.0141183	0.000147723	1	0.0000000E+000	43	0.000000000000000E+000	-2.0856e-09
2	1	0	1	0	1.763	0.0218335	0.0215135	0.000259847	1	3.83569e-07	43	1.7492	5.59022e-09
2	1	0	1	0	3.5371	0.0573165	0.0571203	0.000336551	1	9.06134e-07	43	3.5233	1.92239e-08
2	1	0	1	0	5.3113	0.0927995	0.0924473	0.000457541	1	1.60411e-06	43	5.2975	4.22984e-08
2	1	0	1	0	7.0854	0.128282	0.127966	0.000647404	1	2.57395e-06	43	7.0716	8.2846e-08
2	1	0	1	0	8.8596	0.163765	0.163476	0.00090961	1	3.94272e-06	43	8.8458	1.487e-07
2	1	0	1	0	10.6637	0.199848	0.199679	0.00125234	1	5.88171e-06	42	10.6499	2.50065e-07
2	1	0	1	0	12.4379	0.235331	0.234984	0.00175409	1	8.51529e-06	42	12.4241	4.12183e-07
2	1	0	1	0	14.212	0.270814	0.270528	0.00268349	1	1.23615e-05	42	14.1982	7.25961e-07
2	1	0	1	0	15.9862	0.306297	0.306086	0.00428053	1	1.847e-05	42	15.9724	1.31021e-06
2	1	0	1	0	17.7603	0.34178	0.341439	0.00619199	1	2.77148e-05	42	17.7465	2.11419e-06
2	1	0	1	0	19.5345	0.377263	0.377081	0.0101162	1	4.15343e-05	42	19.5207	3.81463e-06
2	1	0	1	0	21.3386	0.413346	0.413036	0.0217784	1	6.87281e-05	41	21.3248	8.99527e-06
2	1	0	1	0	23.1128	0.44883	0.448473	0.0412967	1	0.000124573	41	23.099	1.85204e-05
2	1	0	1	0	24.8869	0.484312	0.484081	0.0497812	1	0.000208473	41	24.8731	2.40982e-05
2	1	0	1	0	26.661	0.519794	0.519418	0.0441222	1	0.000292768	41	26.6472	2.29179e-05
2	1	0	1	0	28.4352	0.555278	0.555011	0.0372593	1	0.00036483	41	28.4214	2.06793e-05
2	1	0	1	0	30.2094	0.590762	0.590433	0.0325425	1	0.000426598	41	30.1956	1.92142e-05
2	1	0	1	0	31.9835	0.626244	0.625944	0.0294543	1	0.000481558	41	31.9697	1.84367e-05
2	1	0	1	0	33.7576	0.661726	0.661388	0.0274653	1	0.000532092	41	33.7438	1.81653e-05
2	1	0	1	0	35.5318	0.69721	0.69684	0.0263905	1	0.000579947	41	35.518	1.839e-05
2	1	0	1	0	37.284	0.667724	0.667324	0.0225736	1	0.000622071	41	37.2702	1.50639e-05
2	1	0	1	0	39.0581	0.632241	0.632164	0.0207024	1	0.000660154	41	39.0443	1.30873e-05
2	1	0	1	0	40.8323	0.596758	0.596562	0.0190963	1	0.000695313	41	40.8185	1.13921e-05
2	1	0	1	0	42.6064	0.561275	0.560895	0.0170086	1	0.000727347	41	42.5926	9.54006e-06
2	1	0	1	0	44.3806	0.525792	0.525461	0.0127311	1	0.000754159	41	44.3668	6.68971e-06
2	1	0	1	0	46.1847	0.489709	0.48936	0.00183599	1	0.000768661	42	46.1709	8.98458e-07
2	0	0	1	0	47.9889	0.453627	0.453235	-0.0169227	1	0.000755391	41	1.5793	-7.66999e-06
2	0	0	1	0	49.763	0.418144	0.418068	-0.0262125	1	0.000714352	41	3.3534	-1.09586e-05
2	0	0	1	0	51.5372	0.382661	0.382125	-0.0216622	1	0.000670842	41	5.1276	-8.27769e-06
2	0	0	1	0	53.3113	0.347178	0.346777	-0.015996	1	0.000637716	41	6.9017	-5.54705e-06
2	0	0	1	0	55.0855	0.311695	0.311252	-0.0128616	1	0.000612324	41	8.6759	-4.00319e-06
2	0	0	1	0	56.8596	0.276212	0.276039	-0.0105943	1	0.000591458	41	10.45	-2.92444e-06
2	0	0	1	0	58.6338	0.240729	0.240427	-0.0085593	1	0.000574446	41	12.2242	-2.05788e-06
2	0	0	1	0	60.4079	0.205246	0.204987	-0.00701638	1	0.000560617	41	13.9983	-1.43827e-06
2	0	0	1	0	62.1821	0.169763	0.169574	-0.00587738	1	0.000549147	41	15.7725	-9.9665e-07
2	0	0	1	0	63.9562	0.13428	0.13406	-0.00500416	1	0.000539432	41	17.5466	-6.70859e-07
2	0	0	1	0	65.7604	0.0981965	0.0977946	-0.00442496	1	0.0005309	42	19.3508	-4.32737e-07
2	0	0	1	0	67.5345	0.0627139	0.0624951	-0.00391209	1	0.000523513	42	21.1249	-2.44486e-07
2	0	0	1	0	69.3086	0.0272327	0.0270004	-0.00347542	1	0.000516967	42	22.899	-9.38375e-08
2	0	0	1	1	71.0584	0.00779021	0.00767774	-0.00240013	2	0.000511443	42	24.6488	-1.84276e-08
2	0	0	1	1	72.8326	0.0432732	0.0431389	-0.00179313	2	0.000507793	42	26.423	-7.73537e-08
2	0	0	1	1	74.6067	0.0787562	0.0784435	-0.00140442	2	0.000504972	42	28.1971	-1.10167e-07
2	0	0	1	1	76.3809	0.114239	0.11406	-0.00107271	2	0.000502783	42	29.9713	-1.22353e-07
2	0	0	1	1	78.155	0.149722	0.149291	-0.00076549	2	0.000501156	42	31.7454	-1.14281e-07
2	0	0	1	1	79.9292	0.185205	0.18477	-0.000460763	2	0.000500071	42	33.5196	-8.51351e-08
2	0	0	1	1	81.7333	0.221288	0.221031	-8.95512e-05	2	0.000499564	43	35.3237	-1.97936e-08
2	1	0	1	1	83.5074	0.25677	0.256515	0.000503108	2	0.000499881	43	1.3993	1.29055e-07
2	1	0	1	1	85.3116	0.292854	0.29265	0.00170118	2	0.000501771	42	3.2035	4.97851e-07
2	1	0	1	1	87.0857	0.328337	0.328163	0.00328553	2	0.000506184	42	4.9776	1.07819e-06
2	1	0	1	1	88.8599	0.36382	0.363551	0.00568255	2	0.00051383	42	6.7518	2.0659e-06
2	1	0	1	1	90.664	0.399902	0.399821	0.0131722	2	0.000529628	41	8.5559	5.26655e-06
2	1	0	1	1	92.4382	0.435385	0.434972	0.0299387	2	0.000566814	41	10.3301	1.30225e-05
2	1	0	1	1	94.2123	0.470868	0.470599	0.0440121	2	0.000634518	41	12.1042	2.0712e-05
2	1	0	1	1	95.9865	0.506351	0.505945	0.0426292	2	0.000713287	41	13.8784	2.1568e-05
2	1	0	1	1	97.7606	0.541834	0.541708	0.0360183	2	0.000783106	41	15.6525	1.95114e-05
2	1	0	1	1	99.5348	0.577317	0.577017	0.0309295	2	0.000842325	41	17.4267	1.78469e-05
2	1	0	1	1	101.309	0.6128	0.612387	0.0275935	2	0.000894183	41	19.2008	1.68979e-05
2	1	0	1	1	103.083	0.648283	0.648158	0.0254199	2	0.000941238	41	20.975	1.64761e-05
2	1	0	1	1	104.857	0.683766	0.68354	0.0242345	2	0.000985368	41	22.7491	1.65652e-05
2	1	0	1	1	106.607	0.681218	0.680999	0.0213768	2	0.00102581	41	24.4988	1.45576e-05
2	1	0	1	1	108.381	0.645734	0.645415	0.0194098	2	0.00106165	41	26.273	1.25274e-05
2	1	0	1	1	110.155	0.610252	0.610057	0.0180013	2	0.00109464	41	28.0471	1.09818e-05
2	1	0	1	1	111.929	0.574769	0.574599	0.0162921	2	0.001125	41	29.8213	9.36143e-06
2	1	0	1	1	113.703	0.539286	0.539085	0.0131953	2	0.00115138	41	31.5954	7.1134e-06
2	1	0	1	1	115.478	0.503803	0.503704	0.00577326	2	0.00116912	41	33.3696	2.90801e-06
2	0	0	1	1	117.282	0.46772	0.467773	-0.0102338	2	0.00116627	42	1.0245	-4.78708e-06
2	0	0	1	1	119.086	0.431637	0.431466	-0.0249646	2	0.00113252	41	2.8286	-1.07714e-05
2	0	0	1	1	120.86	0.396154	0.3957	-0.023904	2	0.00108723	41	4.6028	-9.45882e-06
2	0	0	1	1	122.634	0.360671	0.36042	-0.0177929	2	0.00105025	41	6.3769	-6.41292e-06
2	0	0	1	1	124.408	0.325188	0.324828	-0.0138185	2	0.00102252	41	8.1511	-4.48864e-06
2	0	0	1	1	126.182	0.289705	0.289547	-0.0114115	2	0.00100014	41	9.9252	-3.30418e-06
2	0	0	1	1	127.957	0.254222	0.25382	-0.00923541	2	0.000981771	41	11.6994	-2.34414e-06
2	0	0	1	1	129.731	0.218739	0.218423	-0.00752284	2	0.000966887	41	13.4735	-1.64316e-06
2	0	0	1	1	131.505	0.183256	0.183223	-0.00629014	2	0.000954626	41	15.2477	-1.1525e-06
2	0	0	1	1	133.279	0.147773	0.147654	-0.00534828	2	0.000944268	41	17.0218	-7.89692e-07
2	0	0	1	1	135.053	0.11229	0.112138	-0.00465642	2	0.000935328	41	18.796	-5.22164e-07
2	0	0	1	1	136.857	0.0762074	0.0758057	-0.00415894	2	0.000927348	42	20.6001	-3.15272e-07
2	0	0	1	1	138.632	0.0407244	0.0404369	-0.00373378	2	0.000920358	42	22.3743	-1.50982e-07
2	0	0	1	1	140.406	0.00524143	0.00505985	-0.00340262	2	0.000914033	42	24.1484	-1.72167e-08
2	0	0	1	0	142.155	0.0297797	0.0295015	-0.00213879	3	0.000909545	42	25.8982	-6.30975e-08
2	0	0	1	0	143.93	0.0652627	0.0650299	-0.00172194	3	0.000906145	42	27.6723	-1.11977e-07
2	0	0	1	0	145.704	0.100746	0.10046	-0.00137178	3	0.000903412	42	29.4465	-1.37809e-07
2	0	0	1	0	147.478	0.136229	0.135971	-0.00105493	3	0.000901264	42	31.2206	-1.4344e-07
2	0	0	1	0	149.252	0.171712	0.171637	-0.00074438	3	0.000899672	42	32.9948	-1.27763e-07
2	0	0	1	0	151.056	0.207794	0.207609	-0.000389219	3	0.000898643	43	34.7989	-8.08052e-08
2	1	0	1	0	152.83	0.243277	0.242926	9.19906e-05	3	0.000898341	43	0.2249	2.23469e-08
2	1	0	1	0	154.604	0.27876	0.278527	0.00100732	3	0.000899221	43	1.999	2.80565e-07
2	1	0	1	0	156.409	0.314843	0.314483	0.00249303	3	0.000902329	42	3.8032	7.84016e-07
2	1	0	1	0	158.183	0.350326	0.350003	0.00427876	3	0.000908222	42	5.5773	1.49758e-06
2	1	0	1	0	159.957	0.385809	0.385479	0.00888129	3	0.000919096	42	7.3515	3.42355e-06
2	1	0	1	0	161.761	0.421892	0.421432	0.0218706	3	0.000945331	41	9.1556	9.21697e-06
2	1	0	1	0	163.535	0.457374	0.457118	0.0391332	3	0.00100029	41	10.9297	1.78885e-05
2	1	0	1	0	165.309	0.492858	0.492445	0.0434605	3	0.00107606	41	12.7039	2.14019e-05
2	1	0	1	0	167.084	0.528343	0.528162	0.037706	3	0.00114863	41	14.4781	1.99149e-05
2	1	0	1	0	168.858	0.563824	0.563662	0.0319626	3	0.00121027	41	16.2522	1.80161e-05
2	1	0	1	0	170.632	0.599307	0.599151	0.0281516	3	0.0012635	41	18.0263	1.68671e-05
2	1	0	1	0	172.406	0.63479	0.634478	0.0257448	3	0.00131128	41	19.8005	1.63345e-05
2	1	0	1	0	174.18	0.670274	0.670008	0.0241877	3	0.00135561	41	21.5747	1.6206e-05
2	1	0	1	0	175.93	0.694711	0.694344	0.0222492	3	0.00139712	41	23.3243	1.54486e-05
2	1	0	1	0	177.704	0.659228	0.659039	0.0196533	3	0.00143374	41	25.0985	1.29523e-05
2	1	0	1	0	179.478	0.623745	0.623298	0.0180664	3	0.00146697	41	26.8726	1.12607e-05
2	1	0	1	0	181.252	0.588262	0.588046	0.0165291	3	0.00149754	41	28.6468	9.71987e-06
2	1	0	1	0	183.026	0.552779	0.552625	0.0141461	3	0.00152481	41	30.4209	7.81752e-06
2	1	0	1	0	184.801	0.517296	0.517166	0.00898174	3	0.00154591	41	32.1951	4.64505e-06
2	0	0	1	0	186.605	0.481213	0.480883	-0.00350844	3	0.00155222	42	0.3748	-1.68715e-06
2	0	0	1	0	188.409	0.445131	0.444889	-0.0207778	3	0.00152976	41	2.179	-9.24383e-06
2	0	0	1	0	190.183	0.409648	0.409298	-0.0252239	3	0.00148639	41	3.9531	-1.03241e-05
2	0	0	1	0	191.957	0.374165	0.373861	-0.0196198	3	0.0014461	41	5.7273	-7.33508e-06
2	0	0	1	0	193.731	0.338682	0.338502	-0.0148095	3	0.00141586	41	7.5014	-5.01305e-06
2	0	0	1	0	195.505	0.303199	0.302909	-0.0121704	3	0.00139202	41	9.2756	-3.68651e-06
2	0	0	1	0	197.28	0.267716	0.267469	-0.0099198	3	0.00137235	41	11.0497	-2.65324e-06
2	0	0	1	0	199.054	0.232233	0.231916	-0.00795834	3	0.00135647	41	12.8239	-1.84567e-06
2	0	0	1	0	200.828	0.19675	0.196494	-0.00645805	3	0.00134366	41	14.598	-1.26897e-06
2	0	0	1	0	202.602	0.161267	0.161013	-0.00537529	3	0.00133309	41	16.3722	-8.65491e-07
2	0	0	1	0	204.376	0.125784	0.125398	-0.00457114	3	0.0013242	41	18.1463	-5.7321e-07
2	0	0	1	0	206.18	0.0897001	0.0895519	-0.00401412	3	0.00131642	42	19.9505	-3.59472e-07
2	0	0	1	0	207.954	0.054218	0.0538973	-0.00354685	3	0.00130972	42	21.7246	-1.91166e-07
2	0	0	1	0	209.729	0.0187359	0.0184823	-0.00318795	3	0.00130376	42	23.4987	-5.89208e-08
2	0	0	0	1	211.394	-0.0145741	-0.0148551	-0.0029625	3	0.00129867	42	25.1645	4.40083e-08