File: Python/Experiments/RDE/Dicarboxylferrocene/Data/240327-CVEIS-5mM_DiCaFerrocene-1M_NaCl-Repeat-0000RPM-Ag_AgCl_BLF8-Au_RDE_CV_C15.mpt
EC-Lab ASCII FILE
Nb header lines : 59

Cyclic Voltammetry

Run on channel : 15 (SN 19485)
User :
Electrode connection : standard
Potential control : Ewe
Ewe ctrl range : min = -1.00 V, max = 1.00 V
Ewe,I filtering : <None>
Safety Limits :
	Do not start on E overload
Channel : Floating
Acquisition started on : 03/27/2024 14:14:01.271
Loaded Setting File :  C:\Data\mathias\GoldElectrode\240327-CVEIS-5mM_DiCaFerrocene-1M_NaCl-0000RPM-Ag_AgCl_BLF8-Au_RDE.mps
Saved on :
	File : 240327-CVEIS-5mM_DiCaFerrocene-1M_NaCl-Repeat-0000RPM-Ag_AgCl_BLF8-Au_RDE_CV_C15.mpr
	Directory : C:\Data\mathias\GoldElectrode\
	Host : 192.168.0.1
Device : VMP-300 (SN 0826)
Address : USB
EC-Lab for windows v11.52 (software)
Internet server v11.52 (firmware)
Command interpretor v11.52 (firmware)
Electrode material :
Initial state :
Electrolyte :
Comments :
Cable : special
Electrode surface area : 0.001 cm²
Characteristic mass : 0.001 g
Equivalent Weight : 0.000 g/eq.
Density : 0.000 g/cm3
Volume (V) : 0.001 cm³
Cycle Definition : Charge/Discharge alternance
Ei (V)              0.000
vs.                 Eoc
dE/dt               20.000
dE/dt unit          mV/s
E1 (V)              0.700
vs.                 Ref
Step percent        50
N                   10
E range min (V)     -1.000
E range max (V)     1.000
I Range             Auto
I Range min         Unset
I Range max         Unset
I Range init        Unset
Bandwidth           8
E2 (V)              0.000
vs.                 Ref
nc cycles           2
Reverse Scan        1
Ef (V)              0.000
vs.                 Eoc

mode	ox/red	error	control changes	counter inc.	time/s	control/V	Ewe/V	<I>/mA	cycle number	(Q-Qo)/C	I Range	step time/s	P/W
2	1	0	0	0	0.000000000000000E+000	0.173836	0.173357	0.000242829	1	0.0000000E+000	43	0.000000000000000E+000	4.20962e-08
2	1	0	1	0	1.738	0.208594	0.208458	0.000434459	1	6.36512e-07	43	1.7242	9.05664e-08
2	1	0	1	0	3.4872	0.243578	0.243224	0.000574294	1	1.51173e-06	43	3.4734	1.39682e-07
2	1	0	1	0	5.2363	0.27856	0.278187	0.000820338	1	2.7069e-06	43	5.2225	2.28208e-07
2	1	0	1	0	7.0155	0.314143	0.314293	0.00134389	1	4.57167e-06	42	7.0017	4.22376e-07
2	1	0	1	0	8.7646	0.349127	0.349078	0.00258194	1	7.8513e-06	42	8.7508	9.01301e-07
2	1	0	1	0	10.5138	0.38411	0.383877	0.00576853	1	1.4722e-05	42	10.5	2.21441e-06
2	1	0	1	0	12.2929	0.419693	0.419667	0.0138584	1	3.12226e-05	41	12.2791	5.81593e-06
2	1	0	1	0	14.0421	0.454676	0.454356	0.030699	1	6.85951e-05	41	14.0283	1.39483e-05
2	1	0	1	0	15.7913	0.489659	0.489227	0.0634648	1	0.000148577	41	15.7775	3.10487e-05
2	1	0	1	0	17.5404	0.524643	0.524476	0.0944384	1	0.00029152	41	17.5266	4.95307e-05
2	1	0	1	0	19.2896	0.559626	0.55911	0.0815211	1	0.000449083	41	19.2758	4.55793e-05
2	1	0	1	0	21.0387	0.594609	0.59435	0.0680221	1	0.000578611	41	21.0249	4.04289e-05
2	1	0	1	0	22.7879	0.629592	0.629442	0.0612317	1	0.00069101	41	22.7741	3.85418e-05
2	1	0	1	0	24.5371	0.664576	0.664445	0.0581704	1	0.00079506	41	24.5233	3.86511e-05
2	1	0	1	0	26.2862	0.699559	0.699317	0.057855	1	0.000896218	41	26.2724	4.0459e-05
2	1	0	1	0	27.996	0.666225	0.665841	0.0270782	1	0.00095264	41	27.9822	1.80298e-05
2	1	0	1	0	29.7451	0.631242	0.630918	0.022242	1	0.000995306	41	29.7313	1.40329e-05
2	1	0	1	0	31.4943	0.596258	0.596021	0.0186384	1	0.00103102	41	31.4805	1.11089e-05
2	1	0	1	0	33.2435	0.561275	0.560797	0.0138048	1	0.0010597	41	33.2297	7.74169e-06
2	1	0	1	0	34.9926	0.526292	0.526114	0.0050559	1	0.00107683	41	34.9788	2.65998e-06
2	0	0	1	0	36.7718	0.490709	0.490374	-0.00769313	1	0.00107469	42	1.0245	-3.77251e-06
2	0	0	1	0	38.5509	0.455126	0.454825	-0.0176227	1	0.0010512	41	2.8036	-8.01524e-06
2	0	0	1	0	40.3001	0.420143	0.419819	-0.0208504	1	0.00101658	41	4.5528	-8.75338e-06
2	0	0	1	0	42.0492	0.385159	0.384835	-0.0198369	1	0.000980533	41	6.3019	-7.63396e-06
2	0	0	1	0	43.7984	0.350176	0.349832	-0.0175702	1	0.000947647	41	8.0511	-6.14662e-06
2	0	0	1	0	45.5476	0.315193	0.314793	-0.0153119	1	0.000918808	41	9.8003	-4.82006e-06
2	0	0	1	0	47.2967	0.28021	0.279987	-0.0132858	1	0.000893735	41	11.5494	-3.71985e-06
2	0	0	1	0	49.0459	0.245226	0.245032	-0.0115461	1	0.000871953	41	13.2986	-2.82916e-06
2	0	0	1	0	50.795	0.210245	0.209993	-0.0100921	1	0.00085294	41	15.0477	-2.11928e-06
2	0	0	1	0	52.5442	0.17526	0.174891	-0.00892866	1	0.000836207	41	16.7969	-1.56154e-06
2	0	0	1	0	54.2934	0.140277	0.140013	-0.0079481	1	0.000821347	41	18.5461	-1.11284e-06
2	0	0	1	0	56.0425	0.105293	0.105023	-0.00712923	1	0.000808043	41	20.2952	-7.48736e-07
2	0	0	1	0	57.7917	0.0703103	0.0699832	-0.00645203	1	0.00079603	41	22.0444	-4.51534e-07
2	0	0	1	0	59.5409	0.035327	0.0348861	-0.0059032	1	0.000785085	41	23.7936	-2.05939e-07
2	0	0	1	0	61.29	0.000343779	0.000183227	-0.00548402	1	0.000774993	41	25.5427	-1.00482e-09
2	0	0	1	1	63.0248	0.0343775	0.0341323	-0.00377672	1	0.000767613	42	27.2775	-1.28908e-07
2	0	0	1	1	64.7739	0.0693607	0.0691991	-0.00319046	1	0.000761553	42	29.0266	-2.20777e-07
2	0	0	1	1	66.5231	0.104344	0.10406	-0.00274024	1	0.000756384	42	30.7758	-2.85149e-07
2	0	0	1	1	68.2722	0.139327	0.138967	-0.00234878	1	0.000751947	42	32.5249	-3.26401e-07
2	0	0	1	1	69.9814	0.173511	0.173512	-0.00200832	2	0.000748234	42	34.2341	-3.48467e-07
2	0	0	1	1	71.7306	0.208494	0.207998	-0.00168771	2	0.000745011	42	35.9833	-3.5104e-07
2	0	0	1	1	73.4798	0.243478	0.2432	-0.00137778	2	0.000742334	42	37.7325	-3.35075e-07
2	0	0	1	1	75.2289	0.27846	0.278191	-0.00103333	2	0.000740216	42	39.4816	-2.87463e-07
2	0	0	1	1	76.9781	0.313444	0.313249	-0.00053768	2	0.000738807	42	41.2308	-1.68428e-07
2	1	0	1	1	78.7572	0.349027	0.348784	0.000435662	2	0.000738607	43	0.5997	1.51952e-07
2	1	0	1	1	80.5364	0.38461	0.384336	0.00273076	2	0.000741126	42	2.3789	1.04953e-06
2	1	0	1	1	82.2855	0.419593	0.419342	0.00845062	2	0.000750153	42	4.128	3.5437e-06
2	1	0	1	1	84.0647	0.455176	0.454985	0.0226319	2	0.000776093	41	5.9072	1.02972e-05
2	1	0	1	1	85.8138	0.490159	0.489768	0.0507277	2	0.00083822	41	7.6563	2.48448e-05
2	1	0	1	1	87.563	0.525142	0.524839	0.079818	2	0.000955684	41	9.4055	4.18916e-05
2	1	0	1	1	89.3122	0.560126	0.559816	0.0727959	2	0.00109326	41	11.1547	4.07523e-05
2	1	0	1	1	91.0613	0.595109	0.594815	0.0606948	2	0.00120909	41	12.9038	3.61021e-05
2	1	0	1	1	92.8105	0.630092	0.630014	0.0541223	2	0.00130904	41	14.653	3.40978e-05
2	1	0	1	1	94.5596	0.665074	0.664789	0.0510337	2	0.00140071	41	16.4021	3.39266e-05
2	1	0	1	1	96.3001	0.699885	0.69962	0.0507995	2	0.00148895	41	18.1426	3.55403e-05
2	1	0	1	1	98.0186	0.665725	0.665558	0.0225676	2	0.00153613	41	19.8611	1.50201e-05
2	1	0	1	1	99.7677	0.630742	0.630409	0.0184958	2	0.00157163	41	21.6102	1.16599e-05
2	1	0	1	1	101.517	0.595758	0.59523	0.0152109	2	0.00160106	41	23.3594	9.054e-06
2	1	0	1	1	103.266	0.560775	0.560349	0.010361	2	0.00162374	41	25.1085	5.80579e-06
2	1	0	1	1	105.045	0.525192	0.524889	0.00164396	2	0.00163508	42	26.8877	8.62896e-07
2	0	0	1	1	106.794	0.490209	0.489677	-0.00981814	2	0.00162797	42	1.4494	-4.80772e-06
2	0	0	1	1	108.573	0.454626	0.454407	-0.0183412	2	0.00160201	41	3.2285	-8.33437e-06
2	0	0	1	1	110.323	0.419643	0.419358	-0.0208581	2	0.00156687	41	4.9777	-8.74701e-06
2	0	0	1	1	112.072	0.38466	0.384067	-0.0197695	2	0.00153093	41	6.7268	-7.59282e-06
2	0	0	1	1	113.821	0.349676	0.349512	-0.0176637	2	0.00149804	41	8.476	-6.1737e-06
2	0	0	1	1	115.57	0.314693	0.314585	-0.0155082	2	0.00146894	41	10.2252	-4.87865e-06
2	0	0	1	1	117.319	0.27971	0.279396	-0.0135817	2	0.00144342	41	11.9743	-3.79467e-06
2	0	0	1	1	119.068	0.244727	0.244421	-0.0118939	2	0.00142107	41	13.7235	-2.90711e-06
2	0	0	1	1	120.818	0.209743	0.209574	-0.0105093	2	0.00140139	41	15.4726	-2.20249e-06
2	0	0	1	1	122.567	0.17476	0.174517	-0.00934896	2	0.00138393	41	17.2218	-1.63155e-06
2	0	0	1	1	124.316	0.139777	0.139758	-0.00838443	2	0.00136831	41	18.971	-1.17179e-06
2	0	0	1	1	126.065	0.104794	0.104589	-0.00755669	2	0.00135425	41	20.7201	-7.9035e-07
2	0	0	1	1	127.814	0.0698105	0.0696143	-0.00687546	2	0.00134149	41	22.4693	-4.7863e-07
2	0	0	1	1	129.563	0.0348286	0.0344243	-0.00630966	2	0.00132982	41	24.2184	-2.17206e-07
2	0	0	1	1	131.301	6.89109e-05	0.000254995	-0.00587601	2	0.00131909	41	25.9564	-1.49835e-09
2	0	0	1	0	133.047	0.034879	0.0345311	-0.00414397	2	0.00131101	42	27.7024	-1.43096e-07
2	0	0	1	0	134.796	0.0698605	0.0695467	-0.00353433	2	0.00130433	42	29.4515	-2.45801e-07
2	0	0	1	0	136.546	0.104844	0.104874	-0.00305305	2	0.00129858	42	31.2007	-3.20186e-07
2	0	0	1	0	138.295	0.139827	0.139647	-0.00263887	2	0.00129362	42	32.9498	-3.68511e-07
2	0	0	1	0	140.004	0.174011	0.173901	-0.00227216	3	0.00128943	42	34.659	-3.95133e-07
2	0	0	1	0	141.753	0.208994	0.208547	-0.00192776	3	0.00128577	42	36.4082	-4.02028e-07
2	0	0	1	0	143.502	0.243977	0.243347	-0.00159747	3	0.0012827	42	38.1573	-3.8874e-07
2	0	0	1	0	145.251	0.27896	0.278872	-0.00124122	3	0.00128021	42	39.9065	-3.4614e-07
2	0	0	1	0	147.001	0.313944	0.313653	-0.000750517	3	0.00127844	42	41.6557	-2.35402e-07
2	1	0	1	0	148.78	0.349526	0.349136	0.00017597	3	0.00127783	43	0.2249	6.14377e-08
2	1	0	1	0	150.559	0.385109	0.384975	0.00230561	3	0.00127976	42	2.0041	8.87601e-07
2	1	0	1	0	152.308	0.420093	0.419736	0.00759332	3	0.00128772	42	3.7532	3.18718e-06
2	1	0	1	0	154.087	0.455676	0.455438	0.0206781	3	0.00131129	41	5.5324	9.4176e-06
2	1	0	1	0	155.836	0.490659	0.490486	0.0469475	3	0.00136844	41	7.2815	2.30271e-05
2	1	0	1	0	157.586	0.525642	0.525491	0.0772123	3	0.0014793	41	9.0307	4.05744e-05
2	1	0	1	0	159.335	0.560625	0.560516	0.0735142	3	0.00161616	41	10.7799	4.12059e-05
2	1	0	1	0	161.084	0.595609	0.59528	0.0608168	3	0.0017328	41	12.529	3.62031e-05
2	1	0	1	0	162.833	0.630592	0.630278	0.053756	3	0.00183246	41	14.2782	3.38812e-05
2	1	0	1	0	164.582	0.665575	0.665272	0.0502385	3	0.00192306	41	16.0273	3.34223e-05
2	1	0	0	0	166.303	0.699984	0.700032	0.0493396	3	0.0020085	41	17.7483	3.45393e-05
2	1	0	1	0	168.041	0.665224	0.664903	0.0220888	3	0.00205497	41	19.4863	1.46869e-05
2	1	0	1	0	169.79	0.630242	0.630031	0.0181616	3	0.00208981	41	21.2354	1.14424e-05
2	1	0	1	0	171.539	0.595259	0.595077	0.0148326	3	0.00211869	41	22.9846	8.82656e-06
2	1	0	1	0	173.289	0.560276	0.560098	0.0098797	3	0.00214068	41	24.7337	5.5336e-06
2	1	0	1	0	175.068	0.524693	0.524575	0.00110265	3	0.00215108	42	26.5129	5.78422e-07
2	0	0	1	0	176.817	0.489709	0.489429	-0.00990407	3	0.00214337	42	1.5492	-4.84734e-06
2	0	0	1	0	178.596	0.454126	0.453998	-0.0177365	3	0.00211793	41	3.3284	-8.05231e-06
2	0	0	1	0	180.345	0.419144	0.418675	-0.0199534	3	0.00208419	41	5.0775	-8.35398e-06
2	0	0	1	0	182.094	0.38416	0.383957	-0.0189589	3	0.00204978	41	6.8267	-7.27938e-06
2	0	0	1	0	183.844	0.349177	0.348928	-0.0170136	3	0.00201816	41	8.5759	-5.93651e-06
2	0	0	1	0	185.593	0.314193	0.313831	-0.0150275	3	0.00199003	41	10.325	-4.71609e-06
2	0	0	1	0	187.342	0.27921	0.278857	-0.0132072	3	0.00196527	41	12.0742	-3.68291e-06
2	0	0	1	0	189.091	0.244227	0.243868	-0.0116337	3	0.00194349	41	13.8234	-2.83709e-06
2	0	0	1	0	190.84	0.209244	0.209219	-0.0103045	3	0.00192424	41	15.5725	-2.1559e-06
2	0	0	1	0	192.589	0.17426	0.17407	-0.00921749	3	0.00190709	41	17.3217	-1.60449e-06
2	0	0	1	0	194.339	0.139276	0.138917	-0.00828092	3	0.00189169	41	19.0709	-1.15036e-06
2	0	0	1	0	196.088	0.104294	0.104129	-0.0075002	3	0.00187777	41	20.82	-7.80991e-07
2	0	0	1	0	197.837	0.0693107	0.0690811	-0.00682952	3	0.00186511	41	22.5692	-4.71791e-07
2	0	0	1	0	199.586	0.0343275	0.0341358	-0.00628112	3	0.0018535	41	24.3183	-2.14411e-07
2	0	0	0	1	201.302	1.89349e-05	-0.000561975	-0.00582026	3	0.00184295	41	26.0343	3.27084e-09
2	0	0	1	1	203.07	0.035377	0.0352316	-0.00414286	3	0.00183478	42	27.8022	-1.4596e-07
2	0	0	1	1	204.819	0.0703602	0.0702925	-0.00353784	3	0.00182809	42	29.5514	-2.48683e-07
2	0	0	1	1	206.568	0.105343	0.105023	-0.0030615	3	0.00182234	42	31.3006	-3.21527e-07
2	0	0	1	1	208.317	0.140327	0.140274	-0.00263946	3	0.00181736	42	33.0497	-3.70249e-07
2	0	0	1	1	209.935	0.172686	0.172766	-0.00230336	3	0.00181338	42	34.6669	-3.97942e-07