File: Python/Experiments/RDE/Dicarboxylferrocene/Data/240327-CVEIS-5mM_DiCaFerrocene-1M_NaCl-ReNeutralized-453p5mVvsRef-2000RPM-Ag_AgCl_BLF8-Au_RDE_Single_PEIS_C15.mpt
EC-Lab ASCII FILE
Nb header lines : 66

Potentio Electrochemical Impedance Spectroscopy

Run on channel : 15 (SN 19485)
User :
Electrode connection : standard
Potential control : Ewe
Ewe ctrl range : min = -1.00 V, max = 1.00 V
Ewe,I filtering : <None>
Safety Limits :
	Do not start on E overload
Channel : Floating
Acquisition started on : 03/27/2024 16:18:17.655
Loaded Setting File :  NONE
Saved on :
	File : 240327-CVEIS-5mM_DiCaFerrocene-1M_NaCl-ReNeutralized-453p5mVvsRef-2000RPM-Ag_AgCl_BLF8-Au_RDE_Single_PEIS_C15.mpr
	Directory : C:\Data\mathias\GoldElectrode\
	Host : 192.168.0.1
Device : VMP-300 (SN 0826)
Address : USB
EC-Lab for windows v11.52 (software)
Internet server v11.52 (firmware)
Command interpretor v11.52 (firmware)
Electrode material :
Initial state :
Electrolyte :
Comments :
Cable : special
Electrode surface area : 0.001 cm²
Characteristic mass : 0.001 g
Equivalent Weight : 0.000 g/eq.
Density : 0.000 g/cm3
Volume (V) : 0.001 cm³
Record EIS quality indicators
Cycle Definition : Charge/Discharge alternance
Mode                Single sine
E (V)               0.4535
vs.                 Ref
tE (h:m:s)          0:00:30.0000
record              0
dI                  0.000
unit dI             mA
dt (s)              0.000
fi                  400.000
unit fi             kHz
ff                  100.000
unit ff             mHz
Nd                  10
Points              per decade
spacing             Logarithmic
Va (mV)             5.0
pw                  0.10
Na                  3
corr                0
E range min (V)     -1.000
E range max (V)     1.000
I Range             Auto
Bandwidth           8
nc cycles           2
goto Ns'            0
nr cycles           0
inc. cycle          1

freq/Hz	Re(Z)/Ohm	-Im(Z)/Ohm	|Z|/Ohm	Phase(Z)/deg	time/s	<Ewe>/V	<I>/mA	Cs/µF	Cp/µF	cycle number	I Range	|Ewe|/V	|I|/A	Ns	(Q-Qo)/mA.h	THD Ewe/%	NSD Ewe/%	NSR Ewe/%	|Ewe h2|/V	|Ewe h3|/V	|Ewe h4|/V	|Ewe h5|/V	|Ewe h6|/V	|Ewe h7|/V	THD I/%	NSD I/%	NSR I/%	|I h2|/A	|I h3|/A	|I h4|/A	|I h5|/A	|I h6|/A	|I h7|/A	Re(Y)/Ohm-1	Im(Y)/Ohm-1	|Y|/Ohm-1	Phase(Y)/deg	Re(C)/nF	Im(C)/nF	|C|/nF	Phase(C)/deg	Re(M)	Im(M)	|M|	Phase(M)/deg	Re(Permittivity)	Im(Permittivity)	|Permittivity|	Phase(Permittivity)/deg	Re(Resistivity)/Ohm.cm	Im(Resistivity)/Ohm.cm	|Resistivity|/Ohm.cm	Phase(Resistivity)/deg	Re(Conductivity)/mS/cm	Im(Conductivity)/mS/cm	|Conductivity|/mS/cm	Phase(Conductivity)/deg	Tan(Delta)	Loss Angle(Delta)/deg	dq/mA.h
399996	11.047	3.0578	11.4624	-15.472	32.5035	0.453347	0.130691	0.130123	0.00926021	1	38	0.00495438	0.000432228	0	0.00125947	-1	-1	-1	0	0	0	0	0	0	-1	-1	-1	0	0	0	0	0	0	0.0840801	0.0232732	0.0872416	15.472	9.26021	33.4547	34.7127	-74.528	0.0000000E+000	0.0000000E+000	0.0000000E+000	74.528	0.0000000E+000	0.0000000E+000	0.0000000E+000	-74.528	0.0000000E+000	0.0000000E+000	0.0000000E+000	-15.472	0.0000000E+000	0.0000000E+000	0.0000000E+000	15.472	3.61274	74.528	0.00125947
50326.6	11.6531	1.90527	11.8078	-9.28564	42.8265	0.453343	0.129907	1.65984	0.0432155	1	38	0.00517519	0.000438285	0	0.00162967	1.35696	0.860697	23.8821	2.81115e-05	2.03211e-05	2.47456e-05	2.06388e-05	3.8654e-05	1.47656e-05	0.515751	0.275042	6.56459	1.2355e-06	3.44782e-07	8.58218e-07	7.22009e-07	9.60266e-07	8.15843e-07	0.08358	0.0136652	0.0846897	9.28564	43.2155	264.317	267.826	-80.7144	0.0000000E+000	0.0000000E+000	0.0000000E+000	80.7144	0.0000000E+000	0.0000000E+000	0.0000000E+000	-80.7144	0.0000000E+000	0.0000000E+000	0.0000000E+000	-9.28564	0.0000000E+000	0.0000000E+000	0.0000000E+000	9.28564	6.11625	80.7144	4.0484e-05
6332.63	14.3921	7.38584	16.1766	-27.1663	52.9499	0.453211	0.128866	3.4028	0.709347	1	38	0.00539033	0.000333217	0	0.00198879	1.17853	0.461845	22.4719	9.69358e-06	1.72849e-05	4.28726e-05	5.54091e-06	2.54861e-05	2.67402e-05	0.630473	0.200468	8.20825	1.21198e-06	5.79668e-07	8.93983e-07	7.20606e-07	6.50959e-07	6.37641e-07	0.0549981	0.0282243	0.0618175	27.1663	709.347	1382.24	1553.63	-62.8337	0.0000000E+000	0.0000000E+000	0.0000000E+000	62.8337	0.0000000E+000	0.0000000E+000	0.0000000E+000	-62.8337	0.0000000E+000	0.0000000E+000	0.0000000E+000	-27.1663	0.0000000E+000	0.0000000E+000	0.0000000E+000	27.1663	1.94861	62.8337	3.65044e-05
796.787	31.5922	27.8234	42.0976	-41.3706	63.3963	0.453229	0.13511	7.17905	3.13598	1	39	0.00515301	0.000122406	0	0.00236348	1.21117	0.442331	21.096	1.17699e-05	2.96932e-05	2.60721e-05	2.63177e-05	2.74188e-05	1.80257e-05	0.640955	0.160322	9.01237	4.60626e-07	2.46967e-07	2.93305e-07	3.71951e-07	1.26228e-07	1.5214e-07	0.0178264	0.0156999	0.0237543	41.3706	3135.98	3560.76	4744.83	-48.6294	0.0000000E+000	0.0000000E+000	0.0000000E+000	48.6294	0.0000000E+000	0.0000000E+000	0.0000000E+000	-48.6294	0.0000000E+000	0.0000000E+000	0.0000000E+000	-41.3706	0.0000000E+000	0.0000000E+000	0.0000000E+000	41.3706	1.13545	48.6294	4.12992e-05
100.224	89.2856	52.4743	103.564	-30.4433	73.3523	0.453264	0.134814	30.2622	7.76921	1	39	0.00492227	4.75289e-05	0	0.00273477	1.16146	0.533138	21.8231	2.08786e-05	2.83931e-05	2.45305e-05	1.0707e-05	2.24601e-05	2.15195e-05	1.56546	0.71456	22.6213	4.62846e-07	2.84022e-07	1.47611e-07	2.44534e-07	2.22288e-07	2.75512e-07	0.00832464	0.0048925	0.00965588	30.4433	7769.21	13219.4	15333.4	-59.5567	0.0000000E+000	0.0000000E+000	0.0000000E+000	59.5567	0.0000000E+000	0.0000000E+000	0.0000000E+000	-59.5567	0.0000000E+000	0.0000000E+000	0.0000000E+000	-30.4433	0.0000000E+000	0.0000000E+000	0.0000000E+000	30.4433	1.70151	59.5567	4.11155e-05
12.6144	163.576	81.5234	182.766	-26.4908	83.2886	0.453281	0.134907	154.765	30.7928	1	40	0.00493809	2.70187e-05	0	0.00310197	1.03391	0.605356	21.9213	1.37134e-05	8.74267e-06	3.09056e-05	2.71566e-05	1.56689e-05	1.50188e-05	0.8196	0.282231	5.08104	2.02258e-07	3.65677e-08	5.25371e-08	5.61428e-08	1.87099e-08	2.00047e-08	0.00489702	0.00244059	0.00547149	26.4908	30792.8	61785.5	69033.7	-63.5092	0.0000000E+000	0.0000000E+000	0.0000000E+000	63.5092	0.0000000E+000	0.0000000E+000	0.0000000E+000	-63.5092	0.0000000E+000	0.0000000E+000	0.0000000E+000	-26.4908	0.0000000E+000	0.0000000E+000	0.0000000E+000	26.4908	2.00649	63.5092	4.30805e-05
1.5871	349.913	155.889	383.067	-24.0134	103.213	0.453273	0.134235	643.28	106.532	1	40	0.00490373	1.28012e-05	0	0.00384358	0.573172	0.282923	9.34528	1.49909e-05	1.61038e-05	1.06633e-05	7.66359e-06	8.53511e-06	6.01526e-06	0.893959	1.66349	4.75336	7.99284e-08	6.35359e-08	4.05555e-08	1.94166e-08	1.09267e-08	6.07018e-09	0.00238457	0.00106235	0.00261051	24.0134	106532	239126	261783	-65.9866	0.0000000E+000	0.0000000E+000	0.0000000E+000	65.9866	0.0000000E+000	0.0000000E+000	0.0000000E+000	-65.9866	0.0000000E+000	0.0000000E+000	0.0000000E+000	-24.0134	0.0000000E+000	0.0000000E+000	0.0000000E+000	24.0134	2.24463	65.9866	0.000157153
0.199573	511.826	34.8544	513.012	-3.89572	236.169	0.453257	0.12902	22880.2	105.614	1	40	0.00490685	9.56478e-06	0	0.00868868	0.27906	0.0938921	3.20896	6.09293e-06	9.24431e-06	2.9627e-06	3.58398e-06	2.90871e-06	3.71989e-06	1.61607	1.74468	3.35027	6.51276e-08	4.08138e-08	5.9412e-08	6.52136e-08	7.66132e-08	4.18956e-08	0.00194477	0.000132435	0.00194927	3.89572	105614	1.5509e+06	1.5545e+06	-86.1043	0.0000000E+000	0.0000000E+000	0.0000000E+000	86.1043	0.0000000E+000	0.0000000E+000	0.0000000E+000	-86.1043	0.0000000E+000	0.0000000E+000	0.0000000E+000	-3.89572	0.0000000E+000	0.0000000E+000	0.0000000E+000	3.89572	14.6847	86.1043	0.00111186
126447	11.3246	1.65931	11.4455	-8.33583	393.355	0.453371	0.120966	0.758546	0.0159429	2	38	0.00514859	0.000449835	0	0.0141919	-1	-1	-1	0	0	0	0	0	0	-1	-1	-1	0	0	0	0	0	0	0.0864475	0.0126665	0.0873706	8.33583	15.9429	108.808	109.97	-81.6642	0.0000000E+000	0.0000000E+000	0.0000000E+000	81.6642	0.0000000E+000	0.0000000E+000	0.0000000E+000	-81.6642	0.0000000E+000	0.0000000E+000	0.0000000E+000	-8.33583	0.0000000E+000	0.0000000E+000	0.0000000E+000	8.33583	6.82487	81.6642	3.76088e-05
15912.6	12.6165	4.0576	13.2529	-17.8284	403.679	0.453356	0.120923	2.46495	0.23106	2	38	0.00513983	0.000387826	0	0.0145339	1.06558	0.567273	23.7427	2.14447e-05	2.47943e-05	2.78136e-05	2.01614e-05	1.45299e-05	1.09936e-05	0.331127	0.148636	7.02466	3.2958e-07	3.00938e-07	5.50514e-07	3.52098e-07	4.00697e-07	7.21584e-07	0.0718316	0.0231018	0.0754551	17.8284	231.06	718.445	754.686	-72.1716	0.0000000E+000	0.0000000E+000	0.0000000E+000	72.1716	0.0000000E+000	0.0000000E+000	0.0000000E+000	-72.1716	0.0000000E+000	0.0000000E+000	0.0000000E+000	-17.8284	0.0000000E+000	0.0000000E+000	0.0000000E+000	17.8284	3.10934	72.1716	3.8771e-05
2001.92	20.3189	18.8568	27.7207	-42.8626	413.83	0.453221	0.120271	4.21605	1.95089	2	38	0.00503049	0.00018147	0	0.0148705	1.06323	0.81703	23.4623	1.36443e-05	2.48957e-05	2.01364e-05	2.45079e-05	1.5213e-05	1.3864e-05	0.836411	0.604163	15.0261	8.10072e-07	3.55946e-07	5.1926e-07	7.68354e-07	4.47282e-07	3.99831e-07	0.0264419	0.0245392	0.0360741	42.8626	1950.89	2102.16	2867.94	-47.1374	0.0000000E+000	0.0000000E+000	0.0000000E+000	47.1374	0.0000000E+000	0.0000000E+000	0.0000000E+000	-47.1374	0.0000000E+000	0.0000000E+000	0.0000000E+000	-42.8626	0.0000000E+000	0.0000000E+000	0.0000000E+000	42.8626	1.07754	47.1374	3.69441e-05
251.853	66.6362	55.5219	86.7356	-39.8014	424.04	0.453243	0.122393	11.3817	4.66382	2	39	0.00492928	5.68311e-05	0	0.015214	1.01447	0.529859	21.7629	9.26568e-06	1.8387e-05	2.21105e-05	1.88479e-05	1.90167e-05	2.34101e-05	1.34956	0.413451	18.9833	4.82141e-07	2.23856e-07	2.50113e-07	3.3016e-07	1.9117e-07	2.05379e-07	0.00885758	0.00738023	0.0115293	39.8014	4663.82	5597.41	7285.76	-50.1986	0.0000000E+000	0.0000000E+000	0.0000000E+000	50.1986	0.0000000E+000	0.0000000E+000	0.0000000E+000	-50.1986	0.0000000E+000	0.0000000E+000	0.0000000E+000	-39.8014	0.0000000E+000	0.0000000E+000	0.0000000E+000	39.8014	1.20018	50.1986	3.73384e-05
31.6723	157.683	74.4805	174.388	-25.2834	434.044	0.453275	0.122876	67.468	12.3069	2	40	0.00493363	2.82911e-05	0	0.015551	1.55396	0.913337	30.3816	2.91798e-05	4.71879e-05	2.83871e-05	1.83981e-05	2.1441e-05	2.24061e-05	0.966268	0.180857	6.62789	2.60616e-07	3.05013e-08	2.46357e-08	4.56196e-08	4.28959e-08	2.71967e-08	0.00518502	0.00244911	0.00573433	25.2834	12306.9	26055	28815.3	-64.7166	0.0000000E+000	0.0000000E+000	0.0000000E+000	64.7166	0.0000000E+000	0.0000000E+000	0.0000000E+000	-64.7166	0.0000000E+000	0.0000000E+000	0.0000000E+000	-25.2834	0.0000000E+000	0.0000000E+000	0.0000000E+000	25.2834	2.1171	64.7166	4.25227e-05
3.98597	271.676	135.743	303.7	-26.5491	445.575	0.453259	0.122487	294.149	58.7644	2	40	0.00491176	1.6173e-05	0	0.0159398	0.859707	0.372998	15.0015	9.97316e-06	1.51173e-05	2.2729e-05	6.13435e-06	1.26515e-05	2.24663e-05	0.950086	0.905061	5.88436	1.34942e-07	2.47145e-08	3.80209e-08	3.65609e-08	2.32378e-08	2.93349e-08	0.00294551	0.00147173	0.00329272	26.5491	58764.4	117610	131474	-63.4509	0.0000000E+000	0.0000000E+000	0.0000000E+000	63.4509	0.0000000E+000	0.0000000E+000	0.0000000E+000	-63.4509	0.0000000E+000	0.0000000E+000	0.0000000E+000	-26.5491	0.0000000E+000	0.0000000E+000	0.0000000E+000	26.5491	2.00139	63.4509	6.47176e-05
0.501541	524.167	101.407	533.886	-10.9494	500.466	0.453254	0.121094	3129.27	112.898	2	40	0.00490534	9.188e-06	0	0.0177912	0.329421	0.178324	4.8733	3.95705e-06	6.43466e-06	5.53623e-06	6.84822e-06	8.40306e-06	5.75545e-06	0.866353	0.654076	3.87957	2.8905e-08	3.6879e-08	1.92141e-08	4.39168e-08	3.06831e-08	2.00867e-08	0.00183896	0.000355773	0.00187306	10.9494	112898	583561	594382	-79.0506	0.0000000E+000	0.0000000E+000	0.0000000E+000	79.0506	0.0000000E+000	0.0000000E+000	0.0000000E+000	-79.0506	0.0000000E+000	0.0000000E+000	0.0000000E+000	-10.9494	0.0000000E+000	0.0000000E+000	0.0000000E+000	10.9494	5.16891	79.0506	0.00041923
317705	11.142	2.51984	11.4233	-12.7435	744.022	0.453349	0.111483	0.198803	0.00967347	3	38	0.0051616	0.000451847	0	0.0257619	-1	-1	-1	0	0	0	0	0	0	-1	-1	-1	0	0	0	0	0	0	0.0853837	0.0193102	0.08754	12.7435	9.67347	42.7731	43.8533	-77.2565	0.0000000E+000	0.0000000E+000	0.0000000E+000	77.2565	0.0000000E+000	0.0000000E+000	0.0000000E+000	-77.2565	0.0000000E+000	0.0000000E+000	0.0000000E+000	-12.7435	0.0000000E+000	0.0000000E+000	0.0000000E+000	12.7435	4.42169	77.2565	3.54643e-05
39971.8	11.7405	2.25917	11.9559	-10.892	754.345	0.453366	0.111976	1.76245	0.0629294	3	38	0.00514801	0.000430585	0	0.0260812	1.41529	0.774454	23.2984	3.46035e-05	1.73895e-05	3.01818e-05	2.58478e-05	3.31558e-05	2.41119e-05	0.380029	0.232066	6.19545	7.16996e-07	5.35849e-07	5.28073e-07	6.13041e-07	6.98962e-07	5.57402e-07	0.0821342	0.0158047	0.083641	10.892	62.9294	327.032	333.032	-79.1079	0.0000000E+000	0.0000000E+000	0.0000000E+000	79.1079	0.0000000E+000	0.0000000E+000	0.0000000E+000	-79.1079	0.0000000E+000	0.0000000E+000	0.0000000E+000	-10.892	0.0000000E+000	0.0000000E+000	0.0000000E+000	10.892	5.19681	79.1079	3.54509e-05