File: Python/Experiments/RDE/Dicarboxylferrocene/Data/240327-CVEIS-5mM_DiCaFerrocene-1M_NaCl-453p5mVvsRef-2000RPM-Ag_AgCl_BLF8-Au_RDE_02_PEIS_C15.mpt
EC-Lab ASCII FILE
Nb header lines : 66

Potentio Electrochemical Impedance Spectroscopy

Run on channel : 15 (SN 19485)
User :
Electrode connection : standard
Potential control : Ewe
Ewe ctrl range : min = -1.00 V, max = 1.00 V
Ewe,I filtering : <None>
Safety Limits :
	Do not start on E overload
Channel : Floating
Acquisition started on : 03/27/2024 13:46:18.854
Loaded Setting File :  C:\Data\mathias\GoldElectrode\240327-CVEIS-5mM_DiCaFerrocene-1M_NaCl-2000RPM-Ag_AgCl_BLF8-Au_RDE.mps
Saved on :
	File : 240327-CVEIS-5mM_DiCaFerrocene-1M_NaCl-453p5mVvsRef-2000RPM-Ag_AgCl_BLF8-Au_RDE_02_PEIS_C15.mpr
	Directory : C:\Data\mathias\GoldElectrode\
	Host : 192.168.0.1
Device : VMP-300 (SN 0826)
Address : USB
EC-Lab for windows v11.52 (software)
Internet server v11.52 (firmware)
Command interpretor v11.52 (firmware)
Electrode material :
Initial state :
Electrolyte :
Comments :
Cable : special
Electrode surface area : 0.001 cm²
Characteristic mass : 0.001 g
Equivalent Weight : 0.000 g/eq.
Density : 0.000 g/cm3
Volume (V) : 0.001 cm³
Record EIS quality indicators
Cycle Definition : Charge/Discharge alternance
Mode                Single sine
E (V)               0.4535
vs.                 Ref
tE (h:m:s)          0:00:0.0000
record              0
dI                  0.000
unit dI             mA
dt (s)              0.000
fi                  400.000
unit fi             kHz
ff                  100.000
unit ff             mHz
Nd                  10
Points              per decade
spacing             Logarithmic
Va (mV)             5.0
pw                  0.10
Na                  3
corr                0
E range min (V)     -1.000
E range max (V)     1.000
I Range             Auto
Bandwidth           8
nc cycles           2
goto Ns'            0
nr cycles           0
inc. cycle          1

freq/Hz	Re(Z)/Ohm	-Im(Z)/Ohm	|Z|/Ohm	Phase(Z)/deg	time/s	<Ewe>/V	<I>/mA	Cs/µF	Cp/µF	cycle number	I Range	|Ewe|/V	|I|/A	Ns	(Q-Qo)/mA.h	THD Ewe/%	NSD Ewe/%	NSR Ewe/%	|Ewe h2|/V	|Ewe h3|/V	|Ewe h4|/V	|Ewe h5|/V	|Ewe h6|/V	|Ewe h7|/V	THD I/%	NSD I/%	NSR I/%	|I h2|/A	|I h3|/A	|I h4|/A	|I h5|/A	|I h6|/A	|I h7|/A	Re(Y)/Ohm-1	Im(Y)/Ohm-1	|Y|/Ohm-1	Phase(Y)/deg	Re(C)/nF	Im(C)/nF	|C|/nF	Phase(C)/deg	Re(M)	Im(M)	|M|	Phase(M)/deg	Re(Permittivity)	Im(Permittivity)	|Permittivity|	Phase(Permittivity)/deg	Re(Resistivity)/Ohm.cm	Im(Resistivity)/Ohm.cm	|Resistivity|/Ohm.cm	Phase(Resistivity)/deg	Re(Conductivity)/mS/cm	Im(Conductivity)/mS/cm	|Conductivity|/mS/cm	Phase(Conductivity)/deg	Tan(Delta)	Loss Angle(Delta)/deg	dq/mA.h
399996	11.2216	3.1427	11.6534	-15.6453	142.671	0.453375	0.0312895	0.126608	0.00920795	1	38	0.0049155	0.000421809	0	2.70126e-05	-1	-1	-1	0	0	0	0	0	0	-1	-1	-1	0	0	0	0	0	0	0.0826326	0.0231419	0.085812	15.6453	9.20794	32.8788	34.1438	-74.3547	0.0000000E+000	0.0000000E+000	0.0000000E+000	74.3547	0.0000000E+000	0.0000000E+000	0.0000000E+000	-74.3547	0.0000000E+000	0.0000000E+000	0.0000000E+000	-15.6453	0.0000000E+000	0.0000000E+000	0.0000000E+000	15.6453	3.5707	74.3547	2.70126e-05
20032.3	13.0196	3.33743	13.4405	-14.3776	157.58	0.453376	0.0306658	2.38055	0.14678	1	38	0.00517269	0.000384857	0	0.000152076	1.89162	0.722156	25.0298	4.85158e-05	3.88774e-05	4.80113e-05	1.68397e-05	2.48216e-05	4.10076e-05	0.508454	0.17553	7.49678	5.21574e-07	4.09554e-07	1.05818e-06	3.89463e-07	4.87381e-07	1.00618e-06	0.0720715	0.0184747	0.0744017	14.3776	146.78	572.602	591.116	-75.6224	0.0000000E+000	0.0000000E+000	0.0000000E+000	75.6224	0.0000000E+000	0.0000000E+000	0.0000000E+000	-75.6224	0.0000000E+000	0.0000000E+000	0.0000000E+000	-14.3776	0.0000000E+000	0.0000000E+000	0.0000000E+000	14.3776	3.90108	75.6224	9.54629e-06
1002.75	26.6333	25.4103	36.8106	-43.6538	172.454	0.453218	0.0376532	6.24621	2.97641	1	39	0.00528723	0.000143634	0	0.000278013	1.23884	1.04829	22.1198	3.21857e-05	2.14437e-05	2.54857e-05	2.60686e-05	2.11554e-05	2.35177e-05	0.807086	0.223539	8.30682	9.32826e-07	4.184e-07	3.18214e-07	1.82641e-07	2.23296e-07	2.43055e-07	0.0196553	0.0187528	0.0271661	43.6538	2976.41	3119.66	4311.76	-46.3462	0.0000000E+000	0.0000000E+000	0.0000000E+000	46.3462	0.0000000E+000	0.0000000E+000	0.0000000E+000	-46.3462	0.0000000E+000	0.0000000E+000	0.0000000E+000	-43.6538	0.0000000E+000	0.0000000E+000	0.0000000E+000	43.6538	1.04813	46.3462	1.32033e-05
50.2089	142.709	162.415	216.205	-48.6952	186.991	0.453277	0.0367292	19.5171	11.0138	1	40	0.00496367	2.29582e-05	0	0.000425529	1.78259	0.922055	32.3826	5.44371e-05	1.50849e-05	3.43198e-05	2.57551e-05	2.35629e-05	3.68716e-05	1.23684	0.245073	8.70328	2.56595e-07	5.11852e-08	4.56243e-08	6.38808e-08	4.11614e-08	4.29093e-08	0.00305296	0.00347453	0.00462525	48.6952	11013.8	9677.46	14661.4	-41.3048	0.0000000E+000	0.0000000E+000	0.0000000E+000	41.3048	0.0000000E+000	0.0000000E+000	0.0000000E+000	-41.3048	0.0000000E+000	0.0000000E+000	0.0000000E+000	-48.6952	0.0000000E+000	0.0000000E+000	0.0000000E+000	48.6952	0.87867	41.3048	1.30279e-05
2.51368	720.57	288.044	776.009	-21.7888	206.419	0.453279	0.0352226	219.812	30.2856	1	41	0.00490235	6.31738e-06	0	0.000617553	0.736616	0.380646	14.9388	1.25179e-05	1.74299e-05	1.27121e-05	1.33347e-05	1.45376e-05	8.68541e-06	2.55017	0.41521	2.43903	1.60352e-07	1.02208e-08	5.57969e-09	8.83008e-09	3.01846e-09	2.71522e-09	0.00119658	0.000478327	0.00128864	21.7888	30285.6	75762.3	81591.3	-68.2112	0.0000000E+000	0.0000000E+000	0.0000000E+000	68.2112	0.0000000E+000	0.0000000E+000	0.0000000E+000	-68.2112	0.0000000E+000	0.0000000E+000	0.0000000E+000	-21.7888	0.0000000E+000	0.0000000E+000	0.0000000E+000	21.7888	2.5016	68.2112	2.73441e-05
0.125939	1294.69	229.775	1314.92	-10.0638	434.658	0.453287	0.0274508	5499.94	167.944	1	41	0.00490726	3.73198e-06	0	0.00253186	0.227898	0.144995	3.15515	3.27606e-06	5.83098e-06	2.92367e-06	5.01061e-06	4.34767e-06	4.43633e-06	3.07848	2.98137	1.62558	1.13068e-07	8.36328e-09	1.03438e-08	8.75906e-09	7.46558e-09	8.02114e-09	0.000748801	0.000132894	0.000760502	10.0638	167944	946297	961084	-79.9362	0.0000000E+000	0.0000000E+000	0.0000000E+000	79.9362	0.0000000E+000	0.0000000E+000	0.0000000E+000	-79.9362	0.0000000E+000	0.0000000E+000	0.0000000E+000	-10.0638	0.0000000E+000	0.0000000E+000	0.0000000E+000	10.0638	5.63459	79.9362	0.000375913
31751	14.7044	3.90706	15.2146	-14.8801	511.723	0.453402	0.0226501	1.28296	0.0846038	2	38	0.00514371	0.000338076	0	0.00308027	1.41274	0.537247	26.3235	3.8568e-05	3.04761e-05	1.8949e-05	2.11966e-05	3.25971e-05	2.02198e-05	0.456696	0.330212	8.19726	9.09789e-07	3.01194e-07	6.49298e-07	4.18474e-07	6.18575e-07	2.64704e-07	0.0635221	0.0168783	0.0657262	14.8801	84.6038	318.41	329.458	-75.1199	0.0000000E+000	0.0000000E+000	0.0000000E+000	75.1199	0.0000000E+000	0.0000000E+000	0.0000000E+000	-75.1199	0.0000000E+000	0.0000000E+000	0.0000000E+000	-14.8801	0.0000000E+000	0.0000000E+000	0.0000000E+000	14.8801	3.76355	75.1199	6.78442e-06
1589.49	27.7517	23.586	36.4206	-40.3611	526.679	0.45327	0.0247912	4.24528	1.78042	2	39	0.00541533	0.000148689	0	0.0031726	1.39085	0.434099	21.446	2.26688e-05	2.71406e-05	4.34828e-05	2.36187e-05	2.9845e-05	2.60384e-05	0.552907	0.21175	7.77099	4.3196e-07	4.30283e-07	3.60109e-07	1.20433e-07	2.42423e-07	1.87948e-07	0.0209217	0.0177812	0.027457	40.3611	1780.42	2094.87	2749.26	-49.6389	0.0000000E+000	0.0000000E+000	0.0000000E+000	49.6389	0.0000000E+000	0.0000000E+000	0.0000000E+000	-49.6389	0.0000000E+000	0.0000000E+000	0.0000000E+000	-40.3611	0.0000000E+000	0.0000000E+000	0.0000000E+000	40.3611	1.17661	49.6389	9.10625e-06
79.6177	128.978	149.443	197.405	-49.2038	541.033	0.453272	0.025153	13.3763	7.66605	2	39	0.00493924	2.50209e-05	0	0.0032726	1.34174	0.78199	23.6845	2.23847e-05	1.08117e-05	3.06206e-05	2.59669e-05	2.64005e-05	2.16604e-05	2.25514	1.48291	48.0258	2.77433e-07	2.80936e-07	1.20784e-07	2.41959e-07	1.60959e-07	1.75602e-07	0.0033098	0.00383496	0.00506574	49.2038	7666.05	6616.26	10126.4	-40.7962	0.0000000E+000	0.0000000E+000	0.0000000E+000	40.7962	0.0000000E+000	0.0000000E+000	0.0000000E+000	-40.7962	0.0000000E+000	0.0000000E+000	0.0000000E+000	-49.2038	0.0000000E+000	0.0000000E+000	0.0000000E+000	49.2038	0.86306	40.7962	7.42967e-06
3.98597	719.951	368.427	808.744	-27.1006	557.63	0.453267	0.0251659	108.376	22.4913	2	41	0.00492467	6.08928e-06	0	0.00338755	1.09346	0.576793	19.3713	1.89738e-05	1.99901e-05	3.23612e-05	2.16692e-05	1.35732e-05	1.34491e-05	2.44184	0.0802137	3.17234	1.47994e-07	8.16218e-09	3.00599e-09	9.9777e-09	2.635e-09	2.1347e-09	0.00110073	0.000563286	0.00123649	27.1006	22491.3	43950.8	49371.3	-62.8994	0.0000000E+000	0.0000000E+000	0.0000000E+000	62.8994	0.0000000E+000	0.0000000E+000	0.0000000E+000	-62.8994	0.0000000E+000	0.0000000E+000	0.0000000E+000	-27.1006	0.0000000E+000	0.0000000E+000	0.0000000E+000	27.1006	1.95412	62.8994	1.69821e-05
0.199573	1290.64	259.572	1316.48	-11.3716	703.323	0.453268	0.0244629	3072.27	119.439	2	41	0.00490726	3.72756e-06	0	0.00437997	0.323344	0.136823	4.13829	6.07247e-06	7.92535e-06	4.51287e-06	7.57868e-06	3.6531e-06	5.28424e-06	2.92678	0.932519	1.68962	1.08467e-07	5.65491e-09	4.70311e-09	6.44475e-09	2.43697e-09	2.44552e-09	0.000744688	0.000149771	0.0007596	11.3716	119439	593870	605762	-78.6284	0.0000000E+000	0.0000000E+000	0.0000000E+000	78.6284	0.0000000E+000	0.0000000E+000	0.0000000E+000	-78.6284	0.0000000E+000	0.0000000E+000	0.0000000E+000	-11.3716	0.0000000E+000	0.0000000E+000	0.0000000E+000	11.3716	4.97218	78.6284	0.000209707
50326.6	14.7187	3.86825	15.2185	-14.725	865.59	0.453378	0.0221567	0.817537	0.0528192	3	38	0.00513466	0.000337396	0	0.00543453	1.33952	0.927444	24.8293	2.29598e-05	3.34629e-05	2.23262e-05	2.78836e-05	2.30535e-05	2.27641e-05	0.492364	0.340809	8.37207	4.68545e-07	3.67294e-07	8.9697e-07	7.50967e-07	5.56009e-07	3.75687e-07	0.0635513	0.016702	0.0657094	14.725	52.8192	200.977	207.802	-75.275	0.0000000E+000	0.0000000E+000	0.0000000E+000	75.275	0.0000000E+000	0.0000000E+000	0.0000000E+000	-75.275	0.0000000E+000	0.0000000E+000	0.0000000E+000	-14.725	0.0000000E+000	0.0000000E+000	0.0000000E+000	14.725	3.805	75.275	6.31081e-06
2519.19	26.0097	19.3467	32.4161	-36.6429	880.151	0.453258	0.0223448	3.26551	1.16318	3	38	0.00548449	0.00016919	0	0.00551976	1.30612	0.768742	24.4735	1.61522e-05	4.0329e-05	2.9481e-05	3.28934e-05	1.24692e-05	2.37064e-05	0.999573	0.545816	16.7808	5.5497e-07	8.15625e-07	7.1657e-07	4.58024e-07	3.45364e-07	8.34797e-07	0.0247523	0.0184114	0.0308489	36.6429	1163.18	1563.77	1948.94	-53.3571	0.0000000E+000	0.0000000E+000	0.0000000E+000	53.3571	0.0000000E+000	0.0000000E+000	0.0000000E+000	-53.3571	0.0000000E+000	0.0000000E+000	0.0000000E+000	-36.6429	0.0000000E+000	0.0000000E+000	0.0000000E+000	36.6429	1.3444	53.3571	6.57527e-06
126.171	102.438	119.662	157.52	-49.4344	895.225	0.453264	0.0223161	10.5415	6.08339	3	39	0.00492526	3.12676e-05	0	0.00561197	1.26819	0.77279	23.0773	1.90169e-05	2.83645e-05	3.05349e-05	2.56868e-05	2.67148e-05	1.19139e-05	2.51487	1.16375	36.3008	5.35391e-07	2.10682e-07	2.62078e-07	2.7985e-07	1.81576e-07	2.50735e-07	0.00412848	0.00482264	0.0063484	49.4344	6083.38	5207.75	8008.01	-40.5656	0.0000000E+000	0.0000000E+000	0.0000000E+000	40.5656	0.0000000E+000	0.0000000E+000	0.0000000E+000	-40.5656	0.0000000E+000	0.0000000E+000	0.0000000E+000	-49.4344	0.0000000E+000	0.0000000E+000	0.0000000E+000	49.4344	0.856062	40.5656	6.76646e-06
6.31569	623.54	395.608	738.449	-32.3933	909.919	0.453285	0.0221266	63.6994	18.282	3	40	0.00490754	6.64573e-06	0	0.00570156	1.39724	0.364672	22.7697	2.50378e-05	2.99307e-05	3.16522e-05	1.48038e-05	2.93474e-05	2.40086e-05	2.50176	0.539401	21.5311	1.41148e-07	4.13882e-08	2.91583e-08	2.60541e-08	4.82052e-08	3.38403e-08	0.00114347	0.000725476	0.00135419	32.3933	18282	28815.3	34125.5	-57.6067	0.0000000E+000	0.0000000E+000	0.0000000E+000	57.6067	0.0000000E+000	0.0000000E+000	0.0000000E+000	-57.6067	0.0000000E+000	0.0000000E+000	0.0000000E+000	-32.3933	0.0000000E+000	0.0000000E+000	0.0000000E+000	32.3933	1.57616	57.6067	8.40682e-06
0.316193	1303.06	283.137	1333.46	-12.2591	1004.18	0.453247	0.0211279	1777.76	80.1499	3	41	0.00490774	3.68045e-06	0	0.00626735	0.311879	0.174346	5.12184	5.61004e-06	6.04426e-06	6.5764e-06	2.60296e-06	4.76692e-06	7.38437e-06	3.01904	0.734025	2.00618	1.10577e-07	7.88837e-09	3.08206e-09	4.97816e-09	2.7856e-09	1.3252e-09	0.000732828	0.000159234	0.000749928	12.2591	80149.9	368867	377474	-77.741	0.0000000E+000	0.0000000E+000	0.0000000E+000	77.741	0.0000000E+000	0.0000000E+000	0.0000000E+000	-77.741	0.0000000E+000	0.0000000E+000	0.0000000E+000	-12.2591	0.0000000E+000	0.0000000E+000	0.0000000E+000	12.2591	4.60221	77.741	0.000115601
0.0999518	1543.56	319.665	1576.32	-11.7003	1208.76	0.453255	0.0203964	4981.21	204.851	3	41	0.00490643	3.11259e-06	0	0.007448	0.244087	0.119169	3.06577	4.42944e-06	8.31988e-06	2.32098e-06	5.40272e-06	3.06159e-06	1.61618e-06	2.99768	1.92466	1.45098	9.25986e-08	6.34212e-09	4.39084e-09	6.41414e-09	3.90746e-09	2.75024e-09	0.000621209	0.000128649	0.00063439	11.7003	204851	989162	1.01015e+06	-78.2997	0.0000000E+000	0.0000000E+000	0.0000000E+000	78.2997	0.0000000E+000	0.0000000E+000	0.0000000E+000	-78.2997	0.0000000E+000	0.0000000E+000	0.0000000E+000	-11.7003	0.0000000E+000	0.0000000E+000	0.0000000E+000	11.7003	4.82869	78.2997	0.000350207