File: Python/Experiments/RDE/Dicarboxylferrocene/Data/240327-CVEIS-5mM_DiCaFerrocene-1M_NaCl-ReNeutralized-453p5mVvsRef-2000RPM-Ag_AgCl_BLF8-Au_RDE_02_PEIS_C15.mpt
EC-Lab ASCII FILE
Nb header lines : 65

Potentio Electrochemical Impedance Spectroscopy

Run on channel : 15 (SN 19485)
User :
Electrode connection : standard
Potential control : Ewe
Ewe ctrl range : min = -1.00 V, max = 1.00 V
Ewe,I filtering : <None>
Safety Limits :
	Do not start on E overload
Channel : Floating
Acquisition started on : 03/27/2024 16:11:02.884
Loaded Setting File :  C:\Data\mathias\GoldElectrode\240327-CVEIS-5mM_DiCaFerrocene-1M_NaCl-2000RPM-Ag_AgCl_BLF8-Au_RDE.mps
Saved on :
	File : 240327-CVEIS-5mM_DiCaFerrocene-1M_NaCl-ReNeutralized-453p5mVvsRef-2000RPM-Ag_AgCl_BLF8-Au_RDE_02_PEIS_C15.mpr
	Directory : C:\Data\mathias\GoldElectrode\
	Host : 192.168.0.1
Device : VMP-300 (SN 0826)
Address : USB
EC-Lab for windows v11.52 (software)
Internet server v11.52 (firmware)
Command interpretor v11.52 (firmware)
Electrode material :
Initial state :
Electrolyte :
Comments :
Cable : special
Electrode surface area : 0.001 cm²
Characteristic mass : 0.001 g
Equivalent Weight : 0.000 g/eq.
Density : 0.000 g/cm3
Volume (V) : 0.001 cm³
Cycle Definition : Charge/Discharge alternance
Mode                Multi sine
E (V)               0.4535
vs.                 Ref
tE (h:m:s)          0:00:30.0000
record              0
dI                  0.000
unit dI             mA
dt (s)              0.000
fi                  400.000
unit fi             kHz
ff                  100.000
unit ff             mHz
Nd                  10
Points              per decade
spacing             Logarithmic
Va (mV)             14.1
pw                  0.10
Na                  3
corr                0
E range min (V)     -1.000
E range max (V)     1.000
I Range             Auto
Bandwidth           8
nc cycles           2
goto Ns'            0
nr cycles           0
inc. cycle          1

freq/Hz	Re(Z)/Ohm	-Im(Z)/Ohm	|Z|/Ohm	Phase(Z)/deg	time/s	<Ewe>/V	<I>/mA	Cs/µF	Cp/µF	cycle number	I Range	|Ewe|/V	|I|/A	Ns	(Q-Qo)/mA.h	Re(Y)/Ohm-1	Im(Y)/Ohm-1	|Y|/Ohm-1	Phase(Y)/deg	Re(C)/nF	Im(C)/nF	|C|/nF	Phase(C)/deg	Re(M)	Im(M)	|M|	Phase(M)/deg	Re(Permittivity)	Im(Permittivity)	|Permittivity|	Phase(Permittivity)/deg	Re(Resistivity)/Ohm.cm	Im(Resistivity)/Ohm.cm	|Resistivity|/Ohm.cm	Phase(Resistivity)/deg	Re(Conductivity)/mS/cm	Im(Conductivity)/mS/cm	|Conductivity|/mS/cm	Phase(Conductivity)/deg	Tan(Delta)	Loss Angle(Delta)/deg	dq/mA.h
399996	10.9841	2.96692	11.3778	-15.1154	183.171	0.45334	0.136135	0.134109	0.00911917	1	38	0.0134474	0.0011819	0	0.0012943	0.0848498	0.0229188	0.0878906	15.1154	9.11917	33.761	34.9709	-74.8846	0.0000000E+000	0.0000000E+000	0.0000000E+000	74.8846	0.0000000E+000	0.0000000E+000	0.0000000E+000	-74.8846	0.0000000E+000	0.0000000E+000	0.0000000E+000	-15.1154	0.0000000E+000	0.0000000E+000	0.0000000E+000	15.1154	3.7022	74.8846	0.0012943
126447	11.3374	1.55246	11.4432	-7.79718	185.926	0.453366	0.136688	0.810757	0.0149224	1	38	0.0145256	0.00126937	0	0.0014	0.0865806	0.0118557	0.0873885	7.79718	14.9224	108.976	109.993	-82.2028	0.0000000E+000	0.0000000E+000	0.0000000E+000	82.2028	0.0000000E+000	0.0000000E+000	0.0000000E+000	-82.2028	0.0000000E+000	0.0000000E+000	0.0000000E+000	-7.79718	0.0000000E+000	0.0000000E+000	0.0000000E+000	7.79718	7.30285	82.2028	2.04283e-05
39971.8	11.7699	2.01472	11.9411	-9.71352	188.681	0.45338	0.137748	1.97629	0.0562592	1	38	0.0145456	0.00121811	0	0.00150521	0.0825438	0.0141295	0.0837444	9.71352	56.2592	328.663	333.443	-80.2865	0.0000000E+000	0.0000000E+000	0.0000000E+000	80.2865	0.0000000E+000	0.0000000E+000	0.0000000E+000	-80.2865	0.0000000E+000	0.0000000E+000	0.0000000E+000	-9.71352	0.0000000E+000	0.0000000E+000	0.0000000E+000	9.71352	5.84194	80.2865	1.99249e-05
12637.3	12.9221	4.13208	13.5667	-17.7326	191.437	0.45336	0.13715	3.04787	0.28274	1	38	0.0143578	0.00105831	0	0.00161316	0.0702079	0.0224503	0.07371	17.7326	282.74	884.201	928.307	-72.2674	0.0000000E+000	0.0000000E+000	0.0000000E+000	72.2674	0.0000000E+000	0.0000000E+000	0.0000000E+000	-72.2674	0.0000000E+000	0.0000000E+000	0.0000000E+000	-17.7326	0.0000000E+000	0.0000000E+000	0.0000000E+000	17.7326	3.12726	72.2674	2.22223e-05
3993.72	15.9097	9.08243	18.3197	-29.7209	194.778	0.453257	0.136213	4.38774	1.07848	1	38	0.014354	0.000783528	0	0.0017361	0.0474054	0.0270625	0.0545862	29.7209	1078.48	1889.17	2175.33	-60.2791	0.0000000E+000	0.0000000E+000	0.0000000E+000	60.2791	0.0000000E+000	0.0000000E+000	0.0000000E+000	-60.2791	0.0000000E+000	0.0000000E+000	0.0000000E+000	-29.7209	0.0000000E+000	0.0000000E+000	0.0000000E+000	29.7209	1.7517	60.2791	2.60945e-05
1262.98	23.7374	18.595	30.1535	-38.0738	198.198	0.453251	0.1359	6.77688	2.57717	1	38	0.0141064	0.00046782	0	0.00186284	0.026107	0.0204512	0.0331636	38.0738	2577.17	3289.89	4179.14	-51.9262	0.0000000E+000	0.0000000E+000	0.0000000E+000	51.9262	0.0000000E+000	0.0000000E+000	0.0000000E+000	-51.9262	0.0000000E+000	0.0000000E+000	0.0000000E+000	-38.0738	0.0000000E+000	0.0000000E+000	0.0000000E+000	38.0738	1.27655	51.9262	2.53084e-05
399.106	41.9102	31.8442	52.6357	-37.2283	201.875	0.453284	0.143053	12.5228	4.58355	1	39	0.0141897	0.000269583	0	0.00200498	0.0151272	0.011494	0.0189985	37.2283	4583.55	6032.41	7576.2	-52.7717	0.0000000E+000	0.0000000E+000	0.0000000E+000	52.7717	0.0000000E+000	0.0000000E+000	0.0000000E+000	-52.7717	0.0000000E+000	0.0000000E+000	0.0000000E+000	-37.2283	0.0000000E+000	0.0000000E+000	0.0000000E+000	37.2283	1.3161	52.7717	2.70815e-05
126.171	70.8906	42.8851	82.8529	-31.1717	205.284	0.453285	0.1427	29.414	7.88044	1	39	0.0139842	0.000168783	0	0.00213892	0.010327	0.00624727	0.0120696	31.1717	7880.44	13026.7	15224.8	-58.8283	0.0000000E+000	0.0000000E+000	0.0000000E+000	58.8283	0.0000000E+000	0.0000000E+000	0.0000000E+000	-58.8283	0.0000000E+000	0.0000000E+000	0.0000000E+000	-31.1717	0.0000000E+000	0.0000000E+000	0.0000000E+000	31.1717	1.65304	58.8283	2.66455e-05
39.8851	103.896	53.5066	116.865	-27.2485	208.718	0.453284	0.143293	74.5765	15.6332	1	39	0.0139585	0.000119441	0	0.00227339	0.00760733	0.00391777	0.00855689	27.2485	15633.2	30355.8	34144.9	-62.7515	0.0000000E+000	0.0000000E+000	0.0000000E+000	62.7515	0.0000000E+000	0.0000000E+000	0.0000000E+000	-62.7515	0.0000000E+000	0.0000000E+000	0.0000000E+000	-27.2485	0.0000000E+000	0.0000000E+000	0.0000000E+000	27.2485	1.94175	62.7515	2.67658e-05
12.6144	142.927	77.0359	162.365	-28.3242	212.426	0.45327	0.143038	163.78	36.8689	1	40	0.0139839	8.61259e-05	0	0.00241829	0.00542158	0.00292217	0.00615894	28.3242	36868.9	68403.9	77707.2	-61.6758	0.0000000E+000	0.0000000E+000	0.0000000E+000	61.6758	0.0000000E+000	0.0000000E+000	0.0000000E+000	-61.6758	0.0000000E+000	0.0000000E+000	0.0000000E+000	-28.3242	0.0000000E+000	0.0000000E+000	0.0000000E+000	28.3242	1.85533	61.6758	3.13484e-05
4.00395	272.98	190.555	332.911	-34.9171	244.326	0.453175	0.140672	208.599	68.3435	1	40	0.0141107	4.23858e-05	0	0.00365663	0.00246307	0.00171935	0.00300381	34.9171	68343.5	97905.7	119400	-55.0829	0.0000000E+000	0.0000000E+000	0.0000000E+000	55.0829	0.0000000E+000	0.0000000E+000	0.0000000E+000	-55.0829	0.0000000E+000	0.0000000E+000	0.0000000E+000	-34.9171	0.0000000E+000	0.0000000E+000	0.0000000E+000	34.9171	1.43255	55.0829	0.000000000000000E+000
1.30128	486.109	222.044	534.421	-24.5499	244.329	0.453175	0.140672	550.819	95.087	1	40	0.0141002	2.6384e-05	0	0.00365663	0.00170203	0.00077745	0.00187118	24.5499	95087	208169	228857	-65.4501	0.0000000E+000	0.0000000E+000	0.0000000E+000	65.4501	0.0000000E+000	0.0000000E+000	0.0000000E+000	-65.4501	0.0000000E+000	0.0000000E+000	0.0000000E+000	-24.5499	0.0000000E+000	0.0000000E+000	0.0000000E+000	24.5499	2.18924	65.4501	0.000000000000000E+000
0.400395	525.737	124.881	540.365	-13.3622	244.333	0.453175	0.140672	3182.98	170.002	1	40	0.0140715	2.60407e-05	0	0.00365663	0.0018005	0.000427684	0.0018506	13.3622	170002	715691	735605	-76.6378	0.0000000E+000	0.0000000E+000	0.0000000E+000	76.6378	0.0000000E+000	0.0000000E+000	0.0000000E+000	-76.6378	0.0000000E+000	0.0000000E+000	0.0000000E+000	-13.3622	0.0000000E+000	0.0000000E+000	0.0000000E+000	13.3622	4.20989	76.6378	0.000000000000000E+000
317705	11.0816	2.48805	11.3575	-12.6542	246.669	0.453372	0.137196	0.201343	0.0096625	2	38	0.0144245	0.00127005	0	0.0037426	0.0859088	0.0192883	0.0880475	12.6542	9.6625	43.0362	44.1075	-77.3458	0.0000000E+000	0.0000000E+000	0.0000000E+000	77.3458	0.0000000E+000	0.0000000E+000	0.0000000E+000	-77.3458	0.0000000E+000	0.0000000E+000	0.0000000E+000	-12.6542	0.0000000E+000	0.0000000E+000	0.0000000E+000	12.6542	4.45393	77.3458	1.9731e-05
100431	11.394	1.53387	11.4968	-7.66712	249.424	0.453384	0.137133	1.03315	0.0183904	2	38	0.0145311	0.00126392	0	0.00384458	0.0862031	0.0116047	0.0869807	7.66712	18.3904	136.608	137.841	-82.3329	0.0000000E+000	0.0000000E+000	0.0000000E+000	82.3329	0.0000000E+000	0.0000000E+000	0.0000000E+000	-82.3329	0.0000000E+000	0.0000000E+000	0.0000000E+000	-7.66712	0.0000000E+000	0.0000000E+000	0.0000000E+000	7.66712	7.42826	82.3329	2.12597e-05
31751	11.9062	2.35347	12.1365	-11.1814	252.18	0.453366	0.137794	2.12987	0.0800905	2	38	0.0145084	0.00119543	0	0.00394699	0.0808317	0.0159779	0.0823958	11.1814	80.0905	405.176	413.016	-78.8186	0.0000000E+000	0.0000000E+000	0.0000000E+000	78.8186	0.0000000E+000	0.0000000E+000	0.0000000E+000	-78.8186	0.0000000E+000	0.0000000E+000	0.0000000E+000	-11.1814	0.0000000E+000	0.0000000E+000	0.0000000E+000	11.1814	5.05898	78.8186	2.05315e-05
10039.3	13.3107	5.08332	14.2483	-20.9017	254.935	0.453375	0.137492	3.11866	0.396949	2	38	0.0141749	0.000994844	0	0.00405152	0.0655652	0.0250392	0.0701837	20.9017	396.949	1039.41	1112.63	-69.0983	0.0000000E+000	0.0000000E+000	0.0000000E+000	69.0983	0.0000000E+000	0.0000000E+000	0.0000000E+000	-69.0983	0.0000000E+000	0.0000000E+000	0.0000000E+000	-20.9017	0.0000000E+000	0.0000000E+000	0.0000000E+000	20.9017	2.61851	69.0983	1.99499e-05
3171.96	17.0379	11.2886	20.4383	-33.5269	258.409	0.45325	0.136265	4.44479	1.35596	2	38	0.0143964	0.000704383	0	0.00418093	0.0407875	0.0270242	0.0489278	33.5269	1355.96	2046.54	2454.98	-56.4731	0.0000000E+000	0.0000000E+000	0.0000000E+000	56.4731	0.0000000E+000	0.0000000E+000	0.0000000E+000	-56.4731	0.0000000E+000	0.0000000E+000	0.0000000E+000	-33.5269	0.0000000E+000	0.0000000E+000	0.0000000E+000	33.5269	1.5093	56.4731	2.51203e-05
1002.75	27.1607	22.8944	35.5226	-40.1283	262.08	0.453227	0.139695	6.93262	2.87969	2	39	0.0149479	0.000420799	0	0.0043171	0.0215244	0.0181434	0.0281511	40.1283	2879.69	3416.31	4468.09	-49.8717	0.0000000E+000	0.0000000E+000	0.0000000E+000	49.8717	0.0000000E+000	0.0000000E+000	0.0000000E+000	-49.8717	0.0000000E+000	0.0000000E+000	0.0000000E+000	-40.1283	0.0000000E+000	0.0000000E+000	0.0000000E+000	40.1283	1.18635	49.8717	3.46778e-05
316.927	49.7673	37.5813	62.3629	-37.0579	265.501	0.453265	0.139839	13.3626	4.85266	2	39	0.0141232	0.000226467	0	0.00444844	0.0127965	0.00966315	0.0160352	37.0579	4852.66	6426.17	8052.57	-52.9421	0.0000000E+000	0.0000000E+000	0.0000000E+000	52.9421	0.0000000E+000	0.0000000E+000	0.0000000E+000	-52.9421	0.0000000E+000	0.0000000E+000	0.0000000E+000	-37.0579	0.0000000E+000	0.0000000E+000	0.0000000E+000	37.0579	1.32426	52.9421	2.62672e-05
100.224	82.6764	47.7201	95.4599	-29.9932	268.912	0.453259	0.139609	33.2771	8.31583	2	39	0.0139393	0.000146023	0	0.0045793	0.00907277	0.00523672	0.0104756	29.9932	8315.83	14407.4	16635.1	-60.0068	0.0000000E+000	0.0000000E+000	0.0000000E+000	60.0068	0.0000000E+000	0.0000000E+000	0.0000000E+000	-60.0068	0.0000000E+000	0.0000000E+000	0.0000000E+000	-29.9932	0.0000000E+000	0.0000000E+000	0.0000000E+000	29.9932	1.73253	60.0068	2.62198e-05
31.6723	118.653	59.179	132.592	-26.508	272.315	0.453277	0.139761	84.9129	16.915	2	39	0.0139414	0.000105145	0	0.00471	0.00674905	0.00336613	0.00754192	26.508	16915	33914.4	37898.6	-63.492	0.0000000E+000	0.0000000E+000	0.0000000E+000	63.492	0.0000000E+000	0.0000000E+000	0.0000000E+000	-63.492	0.0000000E+000	0.0000000E+000	0.0000000E+000	-26.508	0.0000000E+000	0.0000000E+000	0.0000000E+000	26.508	2.00499	63.492	2.51967e-05