File: Python/Experiments/RDE/Dicarboxylferrocene/Data/240327-CVEIS-5mM_DiCaFerrocene-1M_NaCl-2000RPM-Ag_AgCl_BLF8-Au_RDE_01_CV_C15.mpt
EC-Lab ASCII FILE
Nb header lines : 60

Cyclic Voltammetry

Run on channel : 15 (SN 19485)
User :
Electrode connection : standard
Potential control : Ewe
Ewe ctrl range : min = -1.00 V, max = 1.00 V
Ewe,I filtering : <None>
Safety Limits :
	Do not start on E overload
Channel : Floating
Acquisition started on : 03/27/2024 12:54:48.643
Loaded Setting File :  C:\Data\mathias\GoldElectrode\240322-CVEIS-PostActivation-5mM_Fe2Fe3-1M_H2SO4-2000RPM-Ag_AgCl_BLF8-Au_RDE.mps
Saved on :
	File : 240327-CVEIS-5mM_DiCaFerrocene-1M_NaCl-2000RPM-Ag_AgCl_BLF8-Au_RDE_01_CV_C15.mpr
	Directory : C:\Data\mathias\GoldElectrode\
	Host : 192.168.0.1
Device : VMP-300 (SN 0826)
Address : USB
EC-Lab for windows v11.52 (software)
Internet server v11.52 (firmware)
Command interpretor v11.52 (firmware)
Electrode material :
Initial state :
Electrolyte :
Comments :
Cable : special
Electrode surface area : 0.001 cm²
Characteristic mass : 0.001 g
Equivalent Weight : 0.000 g/eq.
Density : 0.000 g/cm3
Volume (V) : 0.001 cm³
Record EIS quality indicators
Cycle Definition : Charge/Discharge alternance
Ei (V)              0.000
vs.                 Eoc
dE/dt               20.000
dE/dt unit          mV/s
E1 (V)              0.700
vs.                 Ref
Step percent        50
N                   10
E range min (V)     -1.000
E range max (V)     1.000
I Range             Auto
I Range min         Unset
I Range max         Unset
I Range init        Unset
Bandwidth           8
E2 (V)              0.000
vs.                 Ref
nc cycles           1
Reverse Scan        1
Ef (V)              0.000
vs.                 Eoc

mode	ox/red	error	control changes	counter inc.	time/s	control/V	Ewe/V	<I>/mA	cycle number	(Q-Qo)/C	I Range	step time/s	P/W
2	1	0	1	0	0.000000000000000E+000	0.0346523	0.0344418	0.000213073	1	0.0000000E+000	43	0.000000000000000E+000	7.33862e-09
2	1	0	1	0	1.1383	0.0574164	0.0572859	0.00030379	1	2.85256e-07	43	1.1245	1.74029e-08
2	1	0	1	0	2.2877	0.0804054	0.0801693	0.000395875	1	6.81019e-07	43	2.2739	3.17371e-08
2	1	0	1	0	3.4372	0.103394	0.103031	0.00050881	1	1.1942e-06	43	3.4234	5.24234e-08
2	1	0	1	0	4.5866	0.126383	0.126028	0.000672954	1	1.86568e-06	43	4.5728	8.48113e-08
2	1	0	1	0	5.7361	0.149372	0.149044	0.000906339	1	2.77211e-06	43	5.7223	1.35084e-07
2	1	0	1	0	6.9155	0.172961	0.172775	0.00127703	1	4.04755e-06	42	6.9017	2.20638e-07
2	1	0	1	0	8.065	0.19595	0.19564	0.00176531	1	5.77421e-06	42	8.0512	3.45365e-07
2	1	0	1	0	9.2144	0.218939	0.218719	0.00252805	1	8.20601e-06	42	9.2006	5.52933e-07
2	1	0	1	0	10.3639	0.241928	0.241582	0.00374048	1	1.17483e-05	42	10.3501	9.03633e-07
2	1	0	1	0	11.5133	0.264917	0.264508	0.00582377	1	1.71447e-05	42	11.4995	1.54044e-06
2	1	0	1	0	12.6628	0.287906	0.287797	0.00920345	1	2.56498e-05	42	12.649	2.64873e-06
2	1	0	1	0	13.8422	0.311495	0.310925	0.0141276	1	3.93e-05	41	13.8284	4.39264e-06
2	1	0	1	0	14.9916	0.334484	0.334203	0.0200237	1	5.89506e-05	41	14.9778	6.69199e-06
2	1	0	1	0	16.1411	0.357473	0.357118	0.0272646	1	8.60205e-05	41	16.1273	9.73668e-06
2	1	0	1	0	17.2905	0.380462	0.380138	0.0388542	1	0.000123461	41	17.2767	1.47699e-05
2	1	0	1	0	18.44	0.403451	0.403231	0.0605987	1	0.000179392	41	18.4262	2.44353e-05
2	1	0	1	0	19.5894	0.42644	0.426185	0.100498	1	0.000270078	41	19.5756	4.28308e-05
2	1	0	1	0	20.7689	0.450028	0.449765	0.161148	1	0.000422909	40	20.7551	7.24788e-05
2	1	0	1	0	21.9183	0.473017	0.472748	0.227167	1	0.000646745	40	21.9045	0.000107393
2	1	0	1	0	23.0678	0.496006	0.495851	0.281253	1	0.000941288	40	23.054	0.00013946
2	1	0	1	0	24.2172	0.518995	0.518671	0.314796	1	0.00128642	40	24.2034	0.000163275
2	1	0	1	0	25.3667	0.541984	0.541604	0.332605	1	0.00166053	40	25.3529	0.00018014
2	1	0	1	0	26.5161	0.564973	0.564737	0.342265	1	0.00204936	40	26.5023	0.000193289
2	1	0	1	0	27.6656	0.587962	0.58758	0.344944	1	0.00244513	40	27.6518	0.000202682
2	1	0	1	0	28.815	0.610951	0.610514	0.347256	1	0.00284338	40	28.8012	0.000212005
2	1	0	1	0	29.9645	0.63394	0.633664	0.348557	1	0.00324418	40	29.9507	0.000220868
2	1	0	1	0	31.1139	0.656929	0.656733	0.348557	1	0.00364524	40	31.1001	0.000228909
2	1	0	1	0	32.2634	0.679918	0.679534	0.347752	1	0.00404629	40	32.2496	0.000236309
2	1	0	1	0	33.381	0.69771	0.697462	0.348803	1	0.00443658	40	33.3672	0.000243277
2	1	0	1	0	34.5304	0.674721	0.674476	0.346109	1	0.00483511	40	34.5166	0.000233442
2	1	0	1	0	35.6799	0.651732	0.651491	0.344485	1	0.00523136	40	35.6661	0.000224429
2	1	0	1	0	36.8293	0.628743	0.628429	0.34173	1	0.00562515	40	36.8155	0.000214753
2	1	0	1	0	37.9788	0.605754	0.605486	0.337267	1	0.0060155	40	37.965	0.00020421
2	1	0	1	0	39.1282	0.582765	0.582526	0.331776	1	0.00640013	40	39.1144	0.000193268
2	1	0	1	0	40.2776	0.559778	0.559499	0.319914	1	0.00677519	40	40.2638	0.000178991
2	1	0	1	0	41.4271	0.536787	0.536562	0.299173	1	0.00713264	40	41.4133	0.000160525
2	1	0	1	0	42.5766	0.513797	0.513496	0.263733	1	0.00745825	40	42.5628	0.000135426
2	1	0	1	0	43.726	0.490809	0.490591	0.212069	1	0.00773253	40	43.7122	0.000104039
2	1	0	1	0	44.8754	0.467821	0.467381	0.150697	1	0.00794073	40	44.8616	7.04327e-05
2	1	0	1	0	46.0249	0.444831	0.44444	0.0958929	1	0.00808084	40	46.0111	4.26187e-05
2	1	0	1	0	47.1744	0.421841	0.421592	0.0565467	1	0.00816638	40	47.1606	2.38397e-05
2	1	0	1	0	48.3538	0.398253	0.397987	0.032952	1	0.00821757	41	48.34	1.31144e-05
2	1	0	1	0	49.5032	0.375264	0.374893	0.0205773	1	0.00824761	41	49.4894	7.7143e-06
2	1	0	1	0	50.6527	0.352275	0.351915	0.0127307	1	0.00826642	41	50.6389	4.48012e-06
2	1	0	1	0	51.8021	0.329286	0.328863	0.00728531	1	0.00827767	41	51.7883	2.39587e-06
2	1	0	1	0	52.9816	0.305697	0.305428	0.00363545	1	0.00828391	42	52.9678	1.11037e-06
2	1	0	1	0	54.131	0.282708	0.282369	0.00153484	1	0.00828677	42	54.1172	4.33393e-07
2	1	0	1	0	55.3104	0.259122	0.25876	0.000319805	1	0.00828779	43	55.2966	8.27529e-08
2	0	0	1	0	56.4599	0.236131	0.235742	-0.000295348	1	0.00828777	43	0.5997	-6.9626e-08
2	0	0	1	0	57.6094	0.213141	0.212754	-0.000608283	1	0.00828723	43	1.7492	-1.29415e-07
2	0	0	1	0	58.7588	0.190153	0.189691	-0.000768724	1	0.00828642	43	2.8986	-1.4582e-07
2	0	0	1	0	59.9082	0.167165	0.166893	-0.000850853	1	0.00828549	43	4.048	-1.42002e-07
2	0	0	1	0	61.0577	0.144175	0.143873	-0.000893211	1	0.00828448	43	5.1975	-1.28509e-07
2	0	0	1	0	62.2072	0.121185	0.120883	-0.000900536	1	0.00828345	43	6.347	-1.08859e-07
2	0	0	1	0	63.3566	0.0981969	0.0978444	-0.000911916	1	0.00828241	43	7.4964	-8.92259e-08
2	0	0	1	0	64.506	0.0752092	0.0748684	-0.000913606	1	0.00828136	43	8.6458	-6.84003e-08
2	0	0	1	0	65.6555	0.0522189	0.0517923	-0.000913777	1	0.00828031	43	9.7953	-4.73266e-08
2	0	0	1	0	66.805	0.029229	0.0289056	-0.00093903	1	0.00827925	43	10.9448	-2.71433e-08
2	0	0	1	0	67.9544	0.00624095	0.00596102	-0.000976268	1	0.00827815	43	12.0942	-5.81955e-09
2	1	0	1	1	69.1393	0.0174856	0.0173175	8.29666e-05	1	0.00827776	43	0.2249	1.43678e-09
2	1	0	1	1	70.2563	0.0398249	0.0394274	0.000298007	2	0.00827798	43	1.3419	1.17496e-08
2	1	0	1	1	71.4058	0.0628156	0.0624858	0.000408957	2	0.00827839	43	2.4914	2.5554e-08
2	1	0	1	1	72.5552	0.0858028	0.0856127	0.00049683	2	0.00827891	43	3.6408	4.2535e-08
2	1	0	1	1	73.7046	0.108792	0.108663	0.000578061	2	0.00827952	43	4.7902	6.28141e-08
2	1	0	1	1	74.8541	0.131781	0.131383	0.000665804	2	0.00828023	43	5.9397	8.74751e-08
2	1	0	1	1	76.0035	0.15477	0.154554	0.000767292	2	0.00828105	43	7.0891	1.18588e-07
2	1	0	1	1	77.153	0.177759	0.177491	0.000903052	2	0.00828201	43	8.2386	1.60283e-07
2	1	0	1	1	78.3024	0.200748	0.200591	0.00108684	2	0.00828314	43	9.388	2.18011e-07
2	1	0	1	1	79.4819	0.224336	0.223918	0.00136576	2	0.00828457	42	10.5675	3.05819e-07
2	1	0	1	1	80.6313	0.247325	0.247109	0.00185263	2	0.00828641	42	11.7169	4.57802e-07
2	1	0	1	1	81.7808	0.270314	0.269937	0.00267683	2	0.00828897	42	12.8664	7.22574e-07
2	1	0	1	1	82.9302	0.293303	0.293077	0.00402723	2	0.00829276	42	14.0158	1.18029e-06
2	1	0	1	1	84.0797	0.316292	0.316012	0.00621254	2	0.00829855	42	15.1653	1.96323e-06
2	1	0	1	1	85.2291	0.339281	0.338751	0.00962039	2	0.00830751	42	16.3147	3.25892e-06
2	1	0	1	1	86.4086	0.36287	0.362516	0.0150402	2	0.00832185	41	17.4942	5.45233e-06
2	1	0	1	1	87.558	0.385859	0.385448	0.0230549	2	0.00834349	41	18.6436	8.88646e-06
2	1	0	1	1	88.7075	0.408848	0.408689	0.036091	2	0.00837687	41	19.7931	1.475e-05
2	1	0	1	1	89.8569	0.431837	0.43155	0.0592556	2	0.00843043	41	20.9425	2.55717e-05
2	1	0	1	1	91.0064	0.454826	0.454635	0.098187	2	0.00851931	41	22.092	4.46392e-05
2	1	0	1	1	92.1858	0.478415	0.478014	0.155678	2	0.00866754	40	23.2714	7.44164e-05
2	1	0	1	1	93.3352	0.501404	0.501009	0.220261	2	0.0088836	40	24.4208	0.000110353
2	1	0	1	1	94.4847	0.524393	0.524053	0.277028	2	0.00917116	40	25.5703	0.000145177
2	1	0	1	1	95.6341	0.547382	0.547088	0.311256	2	0.0095118	40	26.7197	0.000170284
2	1	0	1	1	96.7836	0.570371	0.570082	0.330283	2	0.00988274	40	27.8692	0.000188289
2	1	0	1	1	97.933	0.59336	0.592944	0.336948	2	0.0102669	40	29.0186	0.000199791
2	1	0	1	1	99.0825	0.616349	0.615858	0.341585	2	0.0106574	40	30.1681	0.000210368
2	1	0	1	1	100.232	0.639338	0.638994	0.342055	2	0.0110501	40	31.3175	0.000218571
2	1	0	1	1	101.381	0.662327	0.661904	0.342591	2	0.0114442	40	32.467	0.000226763
2	1	0	1	1	102.531	0.685316	0.685013	0.343041	2	0.0118385	40	33.6164	0.000234988
2	1	0	1	1	103.653	0.692212	0.691751	0.340791	2	0.0122232	40	34.739	0.000235742
2	1	0	1	1	104.803	0.669223	0.669027	0.337131	2	0.0126127	40	35.8885	0.00022555
2	1	0	1	1	105.952	0.646234	0.646134	0.334165	2	0.0129983	40	37.0379	0.000215916
2	1	0	1	1	107.102	0.623245	0.623051	0.329835	2	0.0133797	40	38.1874	0.000205504
2	1	0	1	1	108.251	0.600256	0.600007	0.319546	2	0.013753	40	39.3368	0.00019173
2	1	0	1	1	109.401	0.577267	0.576897	0.301347	2	0.0141112	40	40.4863	0.000173846
2	1	0	1	1	110.55	0.554278	0.553822	0.269288	2	0.0144405	40	41.6357	0.000149138
2	1	0	1	1	111.7	0.531289	0.53107	0.220994	2	0.0147233	40	42.7852	0.000117363
2	1	0	1	1	112.849	0.5083	0.508033	0.164557	2	0.0149447	40	43.9346	8.36005e-05
2	1	0	1	1	113.998	0.485311	0.485146	0.111258	2	0.0151019	40	45.0841	5.39765e-05
2	1	0	1	1	115.148	0.462322	0.462086	0.0691809	2	0.0152039	40	46.2335	3.19675e-05
2	1	0	1	1	116.327	0.438734	0.438389	0.0399213	2	0.0152668	41	47.413	1.7501e-05
2	1	0	1	1	117.477	0.415745	0.415412	0.0231174	2	0.0153021	41	48.5624	9.60325e-06
2	1	0	1	1	118.626	0.392758	0.39238	0.0130995	2	0.0153224	41	49.7118	5.13997e-06
2	1	0	1	1	119.776	0.369767	0.369501	0.00696104	2	0.0153336	41	50.8613	2.57211e-06
2	1	0	1	1	120.955	0.346178	0.345855	0.00326072	2	0.0153394	42	52.0407	1.12774e-06
2	1	0	1	1	122.105	0.323189	0.322854	0.00132355	2	0.0153419	42	53.1902	4.27314e-07
2	1	0	1	1	123.284	0.2996	0.299318	0.00023227	2	0.0153427	43	54.3696	6.95226e-08
2	0	0	1	1	124.433	0.276611	0.276317	-0.000337658	2	0.0153426	43	0.6997	-9.33006e-08
2	0	0	1	1	125.583	0.253622	0.253463	-0.000654526	2	0.0153421	43	1.8491	-1.65898e-07
2	0	0	1	1	126.732	0.230633	0.230415	-0.000789486	2	0.0153412	43	2.9986	-1.8191e-07
2	0	0	1	1	127.882	0.207644	0.207413	-0.000863579	2	0.0153403	43	4.148	-1.79118e-07
2	0	0	1	1	129.031	0.184655	0.18456	-0.000904806	2	0.0153392	43	5.2975	-1.66991e-07
2	0	0	1	1	130.181	0.161666	0.161479	-0.000920928	2	0.0153382	43	6.4469	-1.48711e-07
2	0	0	1	1	131.33	0.138677	0.138405	-0.000940424	2	0.0153371	43	7.5964	-1.30159e-07
2	0	0	1	1	132.48	0.115688	0.115561	-0.000927517	2	0.0153361	43	8.7458	-1.07185e-07
2	0	0	1	1	133.629	0.0926995	0.0924953	-0.000919773	2	0.015335	43	9.8953	-8.50746e-08
2	0	0	1	1	134.778	0.0697105	0.0693527	-0.000914337	2	0.0153339	43	11.0447	-6.34118e-08
2	0	0	1	1	135.928	0.0467216	0.0466135	-0.000921461	2	0.0153329	43	12.1942	-4.29525e-08
2	0	0	1	1	137.077	0.0237326	0.0234479	-0.000942696	2	0.0153318	43	13.3436	-2.21042e-08
2	0	0	1	1	138.227	0.000743588	0.000407666	-0.000977048	2	0.0153307	43	14.4931	-3.98309e-10
2	1	0	1	0	139.412	0.0229829	0.022859	0.000172911	2	0.0153307	43	0.5747	3.95259e-09
2	1	0	1	0	139.936	0.0335029	0.0331514	0.000251662	2	0.0153308	43	1.0993	8.34296e-09