File: Python/Experiments/RDE/Dicarboxylferrocene/Data/240327-CVEIS-5mM_DiCaFerrocene-1M_NaCl-2000RPM-Ag_AgCl_BLF8-Au_RDE_02_PEIS_C15.mpt
EC-Lab ASCII FILE
Nb header lines : 66

Potentio Electrochemical Impedance Spectroscopy

Run on channel : 15 (SN 19485)
User :
Electrode connection : standard
Potential control : Ewe
Ewe ctrl range : min = -1.00 V, max = 1.00 V
Ewe,I filtering : <None>
Safety Limits :
	Do not start on E overload
Channel : Floating
Acquisition started on : 03/27/2024 12:54:48.643
Loaded Setting File :  C:\Data\mathias\GoldElectrode\240322-CVEIS-PostActivation-5mM_Fe2Fe3-1M_H2SO4-2000RPM-Ag_AgCl_BLF8-Au_RDE.mps
Saved on :
	File : 240327-CVEIS-5mM_DiCaFerrocene-1M_NaCl-2000RPM-Ag_AgCl_BLF8-Au_RDE_02_PEIS_C15.mpr
	Directory : C:\Data\mathias\GoldElectrode\
	Host : 192.168.0.1
Device : VMP-300 (SN 0826)
Address : USB
EC-Lab for windows v11.52 (software)
Internet server v11.52 (firmware)
Command interpretor v11.52 (firmware)
Electrode material :
Initial state :
Electrolyte :
Comments :
Cable : special
Electrode surface area : 0.001 cm²
Characteristic mass : 0.001 g
Equivalent Weight : 0.000 g/eq.
Density : 0.000 g/cm3
Volume (V) : 0.001 cm³
Record EIS quality indicators
Cycle Definition : Charge/Discharge alternance
Mode                Single sine
E (V)               0.0000
vs.                 Eoc
tE (h:m:s)          0:00:0.0000
record              0
dI                  0.000
unit dI             mA
dt (s)              0.000
fi                  400.000
unit fi             kHz
ff                  100.000
unit ff             mHz
Nd                  10
Points              per decade
spacing             Logarithmic
Va (mV)             5.0
pw                  0.10
Na                  3
corr                0
E range min (V)     -1.000
E range max (V)     1.000
I Range             Auto
Bandwidth           8
nc cycles           2
goto Ns'            0
nr cycles           0
inc. cycle          1

freq/Hz	Re(Z)/Ohm	-Im(Z)/Ohm	|Z|/Ohm	Phase(Z)/deg	time/s	<Ewe>/V	<I>/mA	Cs/µF	Cp/µF	cycle number	I Range	|Ewe|/V	|I|/A	Ns	(Q-Qo)/mA.h	THD Ewe/%	NSD Ewe/%	NSR Ewe/%	|Ewe h2|/V	|Ewe h3|/V	|Ewe h4|/V	|Ewe h5|/V	|Ewe h6|/V	|Ewe h7|/V	THD I/%	NSD I/%	NSR I/%	|I h2|/A	|I h3|/A	|I h4|/A	|I h5|/A	|I h6|/A	|I h7|/A	Re(Y)/Ohm-1	Im(Y)/Ohm-1	|Y|/Ohm-1	Phase(Y)/deg	Re(C)/nF	Im(C)/nF	|C|/nF	Phase(C)/deg	Re(M)	Im(M)	|M|	Phase(M)/deg	Re(Permittivity)	Im(Permittivity)	|Permittivity|	Phase(Permittivity)/deg	Re(Resistivity)/Ohm.cm	Im(Resistivity)/Ohm.cm	|Resistivity|/Ohm.cm	Phase(Resistivity)/deg	Re(Conductivity)/mS/cm	Im(Conductivity)/mS/cm	|Conductivity|/mS/cm	Phase(Conductivity)/deg	Tan(Delta)	Loss Angle(Delta)/deg	dq/mA.h
399996	11.059	2.8366	11.417	-14.3861	143.658	0.033356	-0.00590641	0.14027	0.00865888	1	38	0.00495313	0.000433839	0	-2.72082e-06	-1	-1	-1	0	0	0	0	0	0	-1	-1	-1	0	0	0	0	0	0	0.0848425	0.0217619	0.087589	14.3861	8.65888	33.7581	34.8509	-75.6139	0.0000000E+000	0.0000000E+000	0.0000000E+000	75.6139	0.0000000E+000	0.0000000E+000	0.0000000E+000	-75.6139	0.0000000E+000	0.0000000E+000	0.0000000E+000	-14.3861	0.0000000E+000	0.0000000E+000	0.0000000E+000	14.3861	3.89866	75.6139	-2.72082e-06
20032.3	12.5114	3.95059	13.1203	-17.5239	158.571	0.0333552	0.00133657	2.01107	0.182332	1	38	0.00515594	0.000392973	0	2.30768e-06	1.65295	0.78072	26.479	1.58101e-05	1.76623e-05	6.78384e-05	2.195e-05	2.41935e-05	2.05016e-05	0.51314	0.293511	7.52949	6.17809e-07	4.9688e-07	1.18525e-06	8.81286e-07	8.38778e-07	3.97854e-07	0.0726804	0.0229494	0.0762176	17.5239	182.332	577.44	605.543	-72.4761	0.0000000E+000	0.0000000E+000	0.0000000E+000	72.4761	0.0000000E+000	0.0000000E+000	0.0000000E+000	-72.4761	0.0000000E+000	0.0000000E+000	0.0000000E+000	-17.5239	0.0000000E+000	0.0000000E+000	0.0000000E+000	17.5239	3.16698	72.4761	5.13111e-07
1002.75	26.05	40.4104	48.0791	-57.1927	173.58	0.0332381	6.07314e-05	3.92766	2.77464	1	39	0.00480223	9.98818e-05	0	4.48125e-06	1.40574	1.50271	24.7333	2.66247e-05	2.50213e-05	2.45363e-05	3.04847e-05	1.95272e-05	2.28436e-05	0.760845	0.491384	11.9994	3.86277e-07	3.46321e-07	1.99836e-07	2.08526e-07	2.27428e-07	3.33655e-07	0.0112693	0.0174816	0.0207991	57.1927	2774.64	1788.64	3301.19	-32.8073	0.0000000E+000	0.0000000E+000	0.0000000E+000	32.8073	0.0000000E+000	0.0000000E+000	0.0000000E+000	-32.8073	0.0000000E+000	0.0000000E+000	0.0000000E+000	-57.1927	0.0000000E+000	0.0000000E+000	0.0000000E+000	57.1927	0.644637	32.8073	-1.01752e-07
50.2089	156.911	446.913	473.659	-70.6538	188.338	0.0332358	-1.01544e-05	7.09278	6.3144	1	40	0.00493709	1.04233e-05	0	4.97891e-06	1.74314	1.06333	33.308	4.93111e-05	2.83732e-05	2.88581e-05	3.37945e-05	2.58166e-05	2.90332e-05	1.1939	0.631198	19.375	8.10118e-08	2.9358e-08	3.22618e-08	5.36633e-08	3.49097e-08	3.83373e-08	0.000699395	0.00199201	0.00211122	70.6538	6314.4	2216.98	6692.28	-19.3462	0.0000000E+000	0.0000000E+000	0.0000000E+000	19.3462	0.0000000E+000	0.0000000E+000	0.0000000E+000	-19.3462	0.0000000E+000	0.0000000E+000	0.0000000E+000	-70.6538	0.0000000E+000	0.0000000E+000	0.0000000E+000	70.6538	0.3511	19.3462	3.51007e-09
2.51368	1434.93	5474.32	5659.25	-75.312	207.375	0.0332521	-2.28377e-05	11.5659	10.8224	1	41	0.00489597	8.65126e-07	0	4.8389e-06	1.02973	0.359288	14.8593	2.33074e-05	2.05972e-05	1.66483e-05	2.43145e-05	2.01237e-05	1.24908e-05	0.90426	0.28748	18.2073	2.61354e-09	3.88058e-09	1.5053e-09	2.34534e-09	3.71243e-09	2.67308e-09	4.48036e-05	0.000170927	0.000176702	75.312	10822.4	2836.76	11188	-14.688	0.0000000E+000	0.0000000E+000	0.0000000E+000	14.688	0.0000000E+000	0.0000000E+000	0.0000000E+000	-14.688	0.0000000E+000	0.0000000E+000	0.0000000E+000	-75.312	0.0000000E+000	0.0000000E+000	0.0000000E+000	75.312	0.262121	14.688	-1.8638e-08
0.125939	22795.1	79510.1	82713.2	-74.0027	439.884	0.0332666	-2.15047e-05	15.8942	14.687	1	43	0.00490137	5.92574e-08	0	3.35161e-06	0.197519	0.13414	3.10065	2.90336e-06	5.89354e-06	3.84309e-06	2.34906e-06	2.67856e-06	3.24311e-06	0.576592	0.251884	18.9882	1.31774e-10	1.6162e-10	9.88946e-11	1.79186e-10	1.19564e-10	5.51323e-11	3.3319e-06	1.16218e-05	1.209e-05	74.0027	14687	4210.69	15278.7	-15.9973	0.0000000E+000	0.0000000E+000	0.0000000E+000	15.9973	0.0000000E+000	0.0000000E+000	0.0000000E+000	-15.9973	0.0000000E+000	0.0000000E+000	0.0000000E+000	-74.0027	0.0000000E+000	0.0000000E+000	0.0000000E+000	74.0027	0.286695	15.9973	-2.76047e-07
31751	11.9446	3.32066	12.3976	-15.5362	517.136	0.0333038	-0.000998294	1.50952	0.108296	2	38	0.00512353	0.000413267	0	-6.90879e-06	1.26818	0.576208	26.9801	4.02813e-05	1.15009e-05	2.75534e-05	1.53617e-05	1.6976e-05	3.09823e-05	0.472699	0.153637	7.21024	1.36715e-06	5.23426e-07	3.9343e-07	8.57488e-07	6.19626e-07	4.05978e-07	0.0777135	0.0216047	0.0806607	15.5362	108.296	389.546	404.319	-74.4638	0.0000000E+000	0.0000000E+000	0.0000000E+000	74.4638	0.0000000E+000	0.0000000E+000	0.0000000E+000	-74.4638	0.0000000E+000	0.0000000E+000	0.0000000E+000	-15.5362	0.0000000E+000	0.0000000E+000	0.0000000E+000	15.5362	3.59706	74.4638	-5.5777e-07
1589.49	21.6045	36.4794	42.397	-59.3644	532.312	0.0332434	-6.63789e-05	2.74482	2.03208	2	39	0.00472717	0.000111498	0	-1.28585e-05	1.15963	0.774082	26.207	1.25851e-05	2.27613e-05	2.56219e-05	2.99889e-05	1.56169e-05	1.3073e-05	0.596245	0.338118	10.9934	3.70474e-07	2.11383e-07	2.0626e-07	1.98111e-07	2.72505e-07	1.77191e-07	0.0120192	0.0202945	0.0235866	59.3644	2032.08	1203.47	2361.71	-30.6356	0.0000000E+000	0.0000000E+000	0.0000000E+000	30.6356	0.0000000E+000	0.0000000E+000	0.0000000E+000	-30.6356	0.0000000E+000	0.0000000E+000	0.0000000E+000	-59.3644	0.0000000E+000	0.0000000E+000	0.0000000E+000	59.3644	0.592236	30.6356	-1.35534e-07
79.6177	144.257	407.745	432.511	-70.5165	547.143	0.0332474	2.72855e-05	4.90255	4.35717	2	40	0.0046352	1.0717e-05	0	-1.28972e-05	1.7447	1.10791	35.3278	2.98661e-05	2.79587e-05	2.93148e-05	3.38687e-05	2.70923e-05	3.83265e-05	1.01514	0.51328	18.3948	2.51717e-08	5.60264e-08	3.14045e-08	3.72965e-08	4.32438e-08	5.09197e-08	0.000771158	0.00217968	0.00231208	70.5165	4357.17	1541.54	4621.82	-19.4835	0.0000000E+000	0.0000000E+000	0.0000000E+000	19.4835	0.0000000E+000	0.0000000E+000	0.0000000E+000	-19.4835	0.0000000E+000	0.0000000E+000	0.0000000E+000	-70.5165	0.0000000E+000	0.0000000E+000	0.0000000E+000	70.5165	0.353794	19.4835	-1.99787e-08
3.98597	1335.58	4603.03	4792.87	-73.8198	563.169	0.0332598	-2.18391e-05	8.67446	8.00088	2	41	0.00459622	9.58969e-07	0	-1.29918e-05	0.97559	0.484852	20.2096	1.37767e-05	1.5462e-05	8.34262e-06	1.73036e-05	1.9067e-05	2.68004e-05	0.932711	0.652223	19.9781	3.10135e-09	3.67934e-09	1.53455e-09	3.3465e-09	4.20523e-09	4.70568e-09	5.81402e-05	0.000200379	0.000208643	73.8198	8000.88	2321.47	8330.86	-16.1802	0.0000000E+000	0.0000000E+000	0.0000000E+000	16.1802	0.0000000E+000	0.0000000E+000	0.0000000E+000	-16.1802	0.0000000E+000	0.0000000E+000	0.0000000E+000	-73.8198	0.0000000E+000	0.0000000E+000	0.0000000E+000	73.8198	0.290152	16.1802	3.4529e-09
0.199573	16527.1	58345.2	60640.8	-74.1845	712.272	0.0332795	-1.95043e-05	13.6682	12.653	2	43	0.00459617	7.57935e-08	0	-1.38199e-05	0.325581	0.232503	4.30314	4.92526e-06	9.3957e-06	2.88326e-06	6.72392e-06	3.03402e-06	5.16513e-06	0.471363	0.210259	18.6339	1.49796e-10	1.24846e-10	5.41251e-11	2.53678e-10	6.75522e-11	1.0967e-10	4.49435e-06	1.58663e-05	1.64906e-05	74.1845	12653	3584.14	13150.8	-15.8155	0.0000000E+000	0.0000000E+000	0.0000000E+000	15.8155	0.0000000E+000	0.0000000E+000	0.0000000E+000	-15.8155	0.0000000E+000	0.0000000E+000	0.0000000E+000	-74.1845	0.0000000E+000	0.0000000E+000	0.0000000E+000	74.1845	0.283264	15.8155	-1.52304e-07
50326.6	11.6039	2.51456	11.8733	-12.2269	875.19	0.0333418	-0.00288443	1.25765	0.0564085	3	38	0.00518682	0.000436849	0	-2.86835e-05	1.3509	1.00096	27.0462	1.86481e-05	3.474e-05	3.08695e-05	1.46551e-05	2.50118e-05	3.1902e-05	0.353352	0.318174	7.00071	5.91562e-07	7.69721e-07	8.4655e-07	4.2758e-07	4.62951e-07	2.9611e-07	0.0823124	0.017837	0.0842229	12.2269	56.4085	260.308	266.35	-77.7731	0.0000000E+000	0.0000000E+000	0.0000000E+000	77.7731	0.0000000E+000	0.0000000E+000	0.0000000E+000	-77.7731	0.0000000E+000	0.0000000E+000	0.0000000E+000	-12.2269	0.0000000E+000	0.0000000E+000	0.0000000E+000	12.2269	4.6147	77.7731	-8.48265e-07
2519.19	17.5367	26.2055	31.5319	-56.2096	889.888	0.033233	-0.0024562	2.41083	1.66514	3	38	0.00523057	0.000165882	0	-3.81519e-05	1.31009	1.09534	27.016	3.20859e-05	2.9319e-05	3.56387e-05	1.73076e-05	1.79038e-05	2.64018e-05	0.919991	0.60304	18.4252	6.53067e-07	4.45083e-07	6.1403e-07	6.70154e-07	4.35811e-07	6.83654e-07	0.0176378	0.0263567	0.0317139	56.2096	1665.14	1114.31	2003.59	-33.7904	0.0000000E+000	0.0000000E+000	0.0000000E+000	33.7904	0.0000000E+000	0.0000000E+000	0.0000000E+000	-33.7904	0.0000000E+000	0.0000000E+000	0.0000000E+000	-56.2096	0.0000000E+000	0.0000000E+000	0.0000000E+000	56.2096	0.669198	33.7904	-8.46931e-07
126.171	103.393	313.066	329.697	-71.7238	905.215	0.0332707	-4.61042e-05	4.02925	3.633	3	40	0.00484563	1.46972e-05	0	-3.89707e-05	1.89381	1.0372	34.0088	1.60035e-05	2.93776e-05	4.19404e-05	3.74978e-05	3.67622e-05	3.83785e-05	0.851309	0.298548	13.8132	2.08974e-08	5.15502e-08	2.76004e-08	7.01649e-08	5.15023e-08	5.22665e-08	0.00095117	0.00288008	0.00303308	71.7238	3633	1199.83	3826	-18.2762	0.0000000E+000	0.0000000E+000	0.0000000E+000	18.2762	0.0000000E+000	0.0000000E+000	0.0000000E+000	-18.2762	0.0000000E+000	0.0000000E+000	0.0000000E+000	-71.7238	0.0000000E+000	0.0000000E+000	0.0000000E+000	71.7238	0.330258	18.2762	-1.83858e-08
6.31569	1034.65	3481.36	3631.86	-73.4482	919.894	0.0332655	-1.38146e-05	7.23853	6.65107	3	41	0.00475192	1.3084e-06	0	-3.90521e-05	1.35983	0.704422	28.2082	3.05673e-05	1.81192e-05	1.16322e-05	3.50264e-05	3.01368e-05	1.87654e-05	1.11893	0.39065	19.8407	4.87576e-09	6.70765e-09	2.34113e-09	5.91989e-09	7.05282e-09	5.39474e-09	7.84396e-05	0.000263932	0.000275341	73.4482	6651.07	1976.67	6938.59	-16.5518	0.0000000E+000	0.0000000E+000	0.0000000E+000	16.5518	0.0000000E+000	0.0000000E+000	0.0000000E+000	-16.5518	0.0000000E+000	0.0000000E+000	0.0000000E+000	-73.4482	0.0000000E+000	0.0000000E+000	0.0000000E+000	73.4482	0.297196	16.5518	-1.06941e-08
0.316193	12092.7	42512.1	44198.5	-74.1215	1016.49	0.0332979	-1.67012e-05	11.8401	10.9538	3	43	0.00475377	1.07555e-07	0	-3.95133e-05	0.314502	0.191659	5.49739	7.7615e-06	7.65801e-06	4.26321e-06	5.46271e-06	3.6816e-06	3.92263e-06	0.403352	0.181128	14.6134	1.42556e-10	2.16002e-10	1.37776e-10	2.84308e-10	7.0922e-11	8.27045e-11	6.19022e-06	2.17619e-05	2.26252e-05	74.1215	10953.8	3115.83	11388.3	-15.8785	0.0000000E+000	0.0000000E+000	0.0000000E+000	15.8785	0.0000000E+000	0.0000000E+000	0.0000000E+000	-15.8785	0.0000000E+000	0.0000000E+000	0.0000000E+000	-74.1215	0.0000000E+000	0.0000000E+000	0.0000000E+000	74.1215	0.284452	15.8785	-8.5618e-08
0.0999518	36439.9	113119	118843	-72.1443	1221.08	0.0332805	-1.54952e-05	14.0765	12.7531	3	43	0.00474972	3.99662e-08	0	-4.04342e-05	0.228022	0.102234	3.80905	4.64853e-06	7.23338e-06	2.44609e-06	2.63151e-06	2.564e-06	3.01943e-06	0.436226	0.177265	33.1562	7.90202e-11	1.03384e-10	2.84538e-11	9.70247e-11	3.5942e-11	2.49072e-11	2.58005e-06	8.00913e-06	8.41444e-06	72.1443	12753.1	4108.25	13398.5	-17.8557	0.0000000E+000	0.0000000E+000	0.0000000E+000	17.8557	0.0000000E+000	0.0000000E+000	0.0000000E+000	-17.8557	0.0000000E+000	0.0000000E+000	0.0000000E+000	-72.1443	0.0000000E+000	0.0000000E+000	0.0000000E+000	72.1443	0.322138	17.8557	-2.74639e-07