File: Python/Experiments/RDE/Dicarboxylferrocene/Data/240327-CVEIS-5mM_DiCaFerrocene-1M_NaCl-0000RPM-Ag_AgCl_BLF8-Au_RDE_02_PEIS_C15.mpt
EC-Lab ASCII FILE
Nb header lines : 65

Potentio Electrochemical Impedance Spectroscopy

Run on channel : 15 (SN 19485)
User :
Electrode connection : standard
Potential control : Ewe
Ewe ctrl range : min = -1.00 V, max = 1.00 V
Ewe,I filtering : <None>
Safety Limits :
	Do not start on E overload
Channel : Floating
Acquisition started on : 03/27/2024 12:38:41.023
Loaded Setting File :  C:\Data\mathias\GoldElectrode\240322-CVEIS-5mM_Fe2Fe3-1M_H2SO4-0000RPM-Ag_AgCl_BLF8-GC_RDE.mps
Saved on :
	File : 240327-CVEIS-5mM_DiCaFerrocene-1M_NaCl-0000RPM-Ag_AgCl_BLF8-Au_RDE_02_PEIS_C15.mpr
	Directory : C:\Data\mathias\GoldElectrode\
	Host : 192.168.0.1
Device : VMP-300 (SN 0826)
Address : USB
EC-Lab for windows v11.52 (software)
Internet server v11.52 (firmware)
Command interpretor v11.52 (firmware)
Electrode material :
Initial state :
Electrolyte :
Comments :
Cable : special
Electrode surface area : 0.001 cm²
Characteristic mass : 0.001 g
Equivalent Weight : 0.000 g/eq.
Density : 0.000 g/cm3
Volume (V) : 0.001 cm³
Cycle Definition : Charge/Discharge alternance
Mode                Single sine
E (V)               0.0000
vs.                 Eoc
tE (h:m:s)          0:00:0.0000
record              0
dI                  0.000
unit dI             mA
dt (s)              0.000
fi                  400.000
unit fi             kHz
ff                  100.000
unit ff             mHz
Nd                  10
Points              per decade
spacing             Logarithmic
Va (mV)             5.0
pw                  0.10
Na                  3
corr                0
E range min (V)     -1.000
E range max (V)     1.000
I Range             Auto
Bandwidth           8
nc cycles           2
goto Ns'            0
nr cycles           0
inc. cycle          1

freq/Hz	Re(Z)/Ohm	-Im(Z)/Ohm	|Z|/Ohm	Phase(Z)/deg	time/s	<Ewe>/V	<I>/mA	Cs/µF	Cp/µF	cycle number	I Range	|Ewe|/V	|I|/A	Ns	(Q-Qo)/mA.h	Re(Y)/Ohm-1	Im(Y)/Ohm-1	|Y|/Ohm-1	Phase(Y)/deg	Re(C)/nF	Im(C)/nF	|C|/nF	Phase(C)/deg	Re(M)	Im(M)	|M|	Phase(M)/deg	Re(Permittivity)	Im(Permittivity)	|Permittivity|	Phase(Permittivity)/deg	Re(Resistivity)/Ohm.cm	Im(Resistivity)/Ohm.cm	|Resistivity|/Ohm.cm	Phase(Resistivity)/deg	Re(Conductivity)/mS/cm	Im(Conductivity)/mS/cm	|Conductivity|/mS/cm	Phase(Conductivity)/deg	Tan(Delta)	Loss Angle(Delta)/deg	dq/mA.h
399996	10.9503	2.6703	11.2711	-13.7045	143.137	0.0237545	-0.00779255	0.149006	0.00836351	1	38	0.00492354	0.000436827	0	-2.68138e-06	0.0861963	0.0210196	0.0887222	13.7045	8.36351	34.2967	35.3018	-76.2955	0.0000000E+000	0.0000000E+000	0.0000000E+000	76.2955	0.0000000E+000	0.0000000E+000	0.0000000E+000	-76.2955	0.0000000E+000	0.0000000E+000	0.0000000E+000	-13.7045	0.0000000E+000	0.0000000E+000	0.0000000E+000	13.7045	4.10076	76.2955	-2.68138e-06
50326.6	11.5225	1.88526	11.6757	-9.29214	148.097	0.0237747	0.000705378	1.67746	0.0437348	1	38	0.00512129	0.000438628	0	-2.57858e-06	0.084524	0.0138294	0.0856479	9.29214	43.7348	267.302	270.857	-80.7079	0.0000000E+000	0.0000000E+000	0.0000000E+000	80.7079	0.0000000E+000	0.0000000E+000	0.0000000E+000	-80.7079	0.0000000E+000	0.0000000E+000	0.0000000E+000	-9.29214	0.0000000E+000	0.0000000E+000	0.0000000E+000	9.29214	6.1119	80.7079	-1.19446e-08
6332.63	13.773	7.9991	15.9274	-30.1471	153.157	0.0236367	0.000604827	3.14192	0.792478	1	38	0.005465	0.000343119	0	-4.9274e-07	0.0542925	0.031532	0.0627849	30.1471	792.478	1364.51	1577.94	-59.8529	0.0000000E+000	0.0000000E+000	0.0000000E+000	59.8529	0.0000000E+000	0.0000000E+000	0.0000000E+000	-59.8529	0.0000000E+000	0.0000000E+000	0.0000000E+000	-30.1471	0.0000000E+000	0.0000000E+000	0.0000000E+000	30.1471	1.72182	59.8529	1.1895e-07
796.787	24.072	44.4892	50.5841	-61.5833	159.781	0.0236463	-0.000257977	4.48976	3.47299	1	39	0.00503303	9.94982e-05	0	-8.52142e-09	0.00940771	0.0173871	0.019769	61.5833	3472.99	1879.15	3948.78	-28.4167	0.0000000E+000	0.0000000E+000	0.0000000E+000	28.4167	0.0000000E+000	0.0000000E+000	0.0000000E+000	-28.4167	0.0000000E+000	0.0000000E+000	0.0000000E+000	-61.5833	0.0000000E+000	0.0000000E+000	0.0000000E+000	61.5833	0.541075	28.4167	-9.98466e-08
100.224	82.8374	249.755	263.134	-71.6506	166.182	0.0236624	-2.9284e-05	6.35818	5.72805	1	40	0.00481431	1.82961e-05	0	2.53465e-07	0.00119639	0.00360712	0.00380035	71.6506	5728.05	1899.85	6034.9	-18.3494	0.0000000E+000	0.0000000E+000	0.0000000E+000	18.3494	0.0000000E+000	0.0000000E+000	0.0000000E+000	-18.3494	0.0000000E+000	0.0000000E+000	0.0000000E+000	-71.6506	0.0000000E+000	0.0000000E+000	0.0000000E+000	71.6506	0.331675	18.3494	1.01289e-08
12.6144	389.374	1409.94	1462.72	-74.5618	172.69	0.0236839	-1.66674e-05	8.94858	8.31447	1	41	0.00475568	3.25126e-06	0	1.47011e-07	0.000181989	0.000658991	0.000683659	74.5618	8314.47	2296.15	8625.7	-15.4382	0.0000000E+000	0.0000000E+000	0.0000000E+000	15.4382	0.0000000E+000	0.0000000E+000	0.0000000E+000	-15.4382	0.0000000E+000	0.0000000E+000	0.0000000E+000	-74.5618	0.0000000E+000	0.0000000E+000	0.0000000E+000	74.5618	0.276164	15.4382	-4.31145e-08
1.5863	2039.9	8327.19	8573.41	-76.2354	182.687	0.0236474	-1.38466e-05	12.0486	11.3665	1	42	0.00475956	5.55153e-07	0	1.0221e-07	2.77525e-05	0.00011329	0.00011664	76.2354	11366.5	2784.44	11702.6	-13.7646	0.0000000E+000	0.0000000E+000	0.0000000E+000	13.7646	0.0000000E+000	0.0000000E+000	0.0000000E+000	-13.7646	0.0000000E+000	0.0000000E+000	0.0000000E+000	-76.2354	0.0000000E+000	0.0000000E+000	0.0000000E+000	76.2354	0.244969	13.7646	2.40209e-10
0.199573	13697.6	53268.4	55001.4	-75.5792	250.847	0.0236821	-7.16021e-07	14.9709	14.0424	1	43	0.00475267	8.64101e-08	0	3.38802e-08	4.52791e-06	1.76085e-05	1.81814e-05	75.5792	14042.4	3610.89	14499.2	-14.4208	0.0000000E+000	0.0000000E+000	0.0000000E+000	14.4208	0.0000000E+000	0.0000000E+000	0.0000000E+000	-14.4208	0.0000000E+000	0.0000000E+000	0.0000000E+000	-75.5792	0.0000000E+000	0.0000000E+000	0.0000000E+000	75.5792	0.257143	14.4208	1.94163e-09
126447	11.1804	1.65027	11.3016	-8.39642	331.885	0.0237549	-0.00256046	0.762702	0.0162625	2	38	0.00515672	0.000456283	0	-5.81271e-06	0.0875349	0.0129204	0.0884833	8.39642	16.2625	110.177	111.371	-81.6036	0.0000000E+000	0.0000000E+000	0.0000000E+000	81.6036	0.0000000E+000	0.0000000E+000	0.0000000E+000	-81.6036	0.0000000E+000	0.0000000E+000	0.0000000E+000	-8.39642	0.0000000E+000	0.0000000E+000	0.0000000E+000	8.39642	6.77491	81.6036	-5.2409e-07
15912.6	12.4187	4.72892	13.2886	-20.8464	336.846	0.0237699	-0.00150102	2.11503	0.267845	2	38	0.00508055	0.000382324	0	-8.53784e-06	0.0703264	0.0267797	0.0752526	20.8464	267.845	703.391	752.661	-69.1536	0.0000000E+000	0.0000000E+000	0.0000000E+000	69.1536	0.0000000E+000	0.0000000E+000	0.0000000E+000	-69.1536	0.0000000E+000	0.0000000E+000	0.0000000E+000	-20.8464	0.0000000E+000	0.0000000E+000	0.0000000E+000	20.8464	2.62611	69.1536	2.84524e-07
2001.92	17.9262	26.0357	31.6102	-55.4516	342.652	0.0236624	-0.00155875	3.05355	2.07151	2	38	0.00487935	0.00015436	0	-1.18497e-05	0.0179405	0.0260564	0.0316354	55.4516	2071.51	1426.29	2515.05	-34.5484	0.0000000E+000	0.0000000E+000	0.0000000E+000	34.5484	0.0000000E+000	0.0000000E+000	0.0000000E+000	-34.5484	0.0000000E+000	0.0000000E+000	0.0000000E+000	-55.4516	0.0000000E+000	0.0000000E+000	0.0000000E+000	55.4516	0.688526	34.5484	-2.93352e-07
251.853	52.4602	147.498	156.55	-70.4212	349.056	0.0236701	-0.000125463	4.28435	3.80324	2	39	0.00477657	3.05115e-05	0	-1.24724e-05	0.00214055	0.00601841	0.00638774	70.4212	3803.24	1352.69	4036.64	-19.5788	0.0000000E+000	0.0000000E+000	0.0000000E+000	19.5788	0.0000000E+000	0.0000000E+000	0.0000000E+000	-19.5788	0.0000000E+000	0.0000000E+000	0.0000000E+000	-70.4212	0.0000000E+000	0.0000000E+000	0.0000000E+000	70.4212	0.355666	19.5788	-3.11942e-08
31.6723	249.315	807.769	845.368	-72.8474	355.444	0.0236971	-2.40688e-05	6.22091	5.67984	2	40	0.00475639	5.62641e-06	0	-1.25075e-05	0.000348864	0.0011303	0.00118292	72.8474	5679.84	1753.06	5944.22	-17.1526	0.0000000E+000	0.0000000E+000	0.0000000E+000	17.1526	0.0000000E+000	0.0000000E+000	0.0000000E+000	-17.1526	0.0000000E+000	0.0000000E+000	0.0000000E+000	-72.8474	0.0000000E+000	0.0000000E+000	0.0000000E+000	72.8474	0.308646	17.1526	1.18671e-08
3.98597	1171.39	4522.36	4671.6	-75.4783	362.098	0.0237142	-3.37475e-06	8.8292	8.27407	2	41	0.00475777	1.01845e-06	0	-1.24857e-05	5.36748e-05	0.000207221	0.000214059	75.4783	8274.07	2143.17	8547.13	-14.5217	0.0000000E+000	0.0000000E+000	0.0000000E+000	14.5217	0.0000000E+000	0.0000000E+000	0.0000000E+000	-14.5217	0.0000000E+000	0.0000000E+000	0.0000000E+000	-75.4783	0.0000000E+000	0.0000000E+000	0.0000000E+000	75.4783	0.259022	14.5217	6.09081e-10
0.501187	6442.21	26801.8	27565.2	-76.4845	390.631	0.0236803	2.86664e-06	11.8483	11.2011	2	43	0.00475263	1.72414e-07	0	-1.24593e-05	8.47837e-06	3.5273e-05	3.62776e-05	76.4845	11201.1	2692.36	11520.2	-13.5155	0.0000000E+000	0.0000000E+000	0.0000000E+000	13.5155	0.0000000E+000	0.0000000E+000	0.0000000E+000	-13.5155	0.0000000E+000	0.0000000E+000	0.0000000E+000	-76.4845	0.0000000E+000	0.0000000E+000	0.0000000E+000	76.4845	0.240365	13.5155	4.8844e-09
317705	11.0628	2.28434	11.2962	-11.6669	515.157	0.0237652	-0.00442239	0.219299	0.00896787	3	38	0.00514996	0.000455901	0	-1.70579e-05	0.0866962	0.0179017	0.0885252	11.6669	8.96787	43.4306	44.3468	-78.3331	0.0000000E+000	0.0000000E+000	0.0000000E+000	78.3331	0.0000000E+000	0.0000000E+000	0.0000000E+000	-78.3331	0.0000000E+000	0.0000000E+000	0.0000000E+000	-11.6669	0.0000000E+000	0.0000000E+000	0.0000000E+000	11.6669	4.84291	78.3331	-1.07714e-06
39971.8	11.7014	2.59601	11.9859	-12.5087	520.118	0.0237811	-0.00281182	1.53377	0.0719499	3	38	0.00520054	0.000433888	0	-1.95324e-05	0.0814509	0.0180702	0.0834313	12.5087	71.9499	324.311	332.197	-77.4913	0.0000000E+000	0.0000000E+000	0.0000000E+000	77.4913	0.0000000E+000	0.0000000E+000	0.0000000E+000	-77.4913	0.0000000E+000	0.0000000E+000	0.0000000E+000	-12.5087	0.0000000E+000	0.0000000E+000	0.0000000E+000	12.5087	4.50746	77.4913	-1.30861e-07
5028.39	14.3199	12.9654	19.3174	-42.1582	525.311	0.0236571	-0.00287141	2.4412	1.09972	3	38	0.00537608	0.000278303	0	-2.33111e-05	0.0383745	0.0347449	0.0517669	42.1582	1099.72	1214.6	1638.49	-47.8418	0.0000000E+000	0.0000000E+000	0.0000000E+000	47.8418	0.0000000E+000	0.0000000E+000	0.0000000E+000	-47.8418	0.0000000E+000	0.0000000E+000	0.0000000E+000	-42.1582	0.0000000E+000	0.0000000E+000	0.0000000E+000	42.1582	1.10446	47.8418	-4.86968e-07
632.773	30.379	75.2125	81.116	-68.0057	531.941	0.0236564	6.87444e-05	3.34413	2.87508	3	39	0.00460747	5.6801e-05	0	-2.67136e-05	0.00461701	0.0114308	0.012328	68.0057	2875.08	1161.27	3100.75	-21.9943	0.0000000E+000	0.0000000E+000	0.0000000E+000	21.9943	0.0000000E+000	0.0000000E+000	0.0000000E+000	-21.9943	0.0000000E+000	0.0000000E+000	0.0000000E+000	-68.0057	0.0000000E+000	0.0000000E+000	0.0000000E+000	68.0057	0.40391	21.9943	2.39694e-08
79.6177	127.918	416.379	435.585	-72.9223	538.565	0.0236637	-2.01757e-05	4.8009	4.38686	3	40	0.00496591	1.14006e-05	0	-2.68429e-05	0.000674194	0.00219454	0.00229576	72.9223	4386.86	1347.71	4589.21	-17.0777	0.0000000E+000	0.0000000E+000	0.0000000E+000	17.0777	0.0000000E+000	0.0000000E+000	0.0000000E+000	-17.0777	0.0000000E+000	0.0000000E+000	0.0000000E+000	-72.9223	0.0000000E+000	0.0000000E+000	0.0000000E+000	72.9223	0.307214	17.0777	-3.47564e-09
10.016	661.527	2267.26	2361.8	-73.7341	545.023	0.0236971	5.06691e-06	7.00847	6.45863	3	41	0.0049134	2.08037e-06	0	-2.68076e-05	0.000118594	0.000406459	0.000423407	73.7341	6458.63	1884.46	6727.94	-16.2659	0.0000000E+000	0.0000000E+000	0.0000000E+000	16.2659	0.0000000E+000	0.0000000E+000	0.0000000E+000	-16.2659	0.0000000E+000	0.0000000E+000	0.0000000E+000	-73.7341	0.0000000E+000	0.0000000E+000	0.0000000E+000	73.7341	0.291774	16.2659	1.99336e-09
1.25968	3214.04	13000.5	13391.9	-76.1136	556.852	0.0236776	4.25694e-06	9.71852	9.15874	3	42	0.00490689	3.66406e-07	0	-2.67842e-05	1.79211e-05	7.24894e-05	7.46719e-05	76.1136	9158.74	2264.26	9434.48	-13.8864	0.0000000E+000	0.0000000E+000	0.0000000E+000	13.8864	0.0000000E+000	0.0000000E+000	0.0000000E+000	-13.8864	0.0000000E+000	0.0000000E+000	0.0000000E+000	-76.1136	0.0000000E+000	0.0000000E+000	0.0000000E+000	76.1136	0.247223	13.8864	1.22657e-08
0.158469	19964.7	77708.5	80232.2	-75.5913	641.534	0.0236579	4.09747e-06	12.9243	12.1241	3	43	0.0048983	6.10515e-08	0	-2.66785e-05	3.10145e-06	1.20718e-05	1.24638e-05	75.5913	12124.1	3114.88	12517.8	-14.4087	0.0000000E+000	0.0000000E+000	0.0000000E+000	14.4087	0.0000000E+000	0.0000000E+000	0.0000000E+000	-14.4087	0.0000000E+000	0.0000000E+000	0.0000000E+000	-75.5913	0.0000000E+000	0.0000000E+000	0.0000000E+000	75.5913	0.256917	14.4087	2.81369e-08
0.100022	31237.2	116004	120136	-74.9291	697.293	0.0236752	4.03424e-06	13.7168	12.7894	3	43	0.00490207	4.08043e-08	0	-2.66236e-05	2.16433e-06	8.03759e-06	8.32389e-06	74.9291	12789.4	3443.89	13245	-15.0709	0.0000000E+000	0.0000000E+000	0.0000000E+000	15.0709	0.0000000E+000	0.0000000E+000	0.0000000E+000	-15.0709	0.0000000E+000	0.0000000E+000	0.0000000E+000	-74.9291	0.0000000E+000	0.0000000E+000	0.0000000E+000	74.9291	0.269277	15.0709	2.72966e-08