File: Python/Experiments/IRFB/FirstCell/Data/240411-EIS-50mM_FeCl2FeCl3-1M_HCl-30mLmin_Dampened-25mHz_20ppd_C15.mpt
EC-Lab ASCII FILE
Nb header lines : 66

Potentio Electrochemical Impedance Spectroscopy

Run on channel : 15 (SN 19485)
User :
Electrode connection : standard
Potential control : Ewe
Ewe ctrl range : min = -1.00 V, max = 1.00 V
Ewe,I filtering : <None>
Safety Limits :
	Do not start on E overload
Channel : Floating
Acquisition started on : 04/11/2024 12:29:34.554
Loaded Setting File :  NONE
Saved on :
	File : 240411-EIS-50mM_FeCl2FeCl3-1M_HCl-30mLmin_Dampened-25mHz_20ppd_C15.mpr
	Directory : C:\Data\mathias\IRFB\
	Host : 192.168.0.1
Device : VMP-300 (SN 0826)
Address : USB
EC-Lab for windows v11.52 (software)
Internet server v11.52 (firmware)
Command interpretor v11.52 (firmware)
Electrode material :
Initial state :
Electrolyte :
Comments :
Cable : special
Electrode surface area : 0.001 cm²
Characteristic mass : 0.001 g
Equivalent Weight : 0.000 g/eq.
Density : 0.000 g/cm3
Volume (V) : 0.001 cm³
Record EIS quality indicators
Cycle Definition : Charge/Discharge alternance
Mode                Single sine
E (V)               0.0000
vs.                 Eoc
tE (h:m:s)          0:00:0.0000
record              0
dI                  0.000
unit dI             mA
dt (s)              0.000
fi                  920.000
unit fi             kHz
ff                  25.000
unit ff             mHz
Nd                  20
Points              per decade
spacing             Logarithmic
Va (mV)             5.0
pw                  0.10
Na                  3
corr                0
E range min (V)     -1.000
E range max (V)     1.000
I Range             Auto
Bandwidth           8
nc cycles           0
goto Ns'            0
nr cycles           0
inc. cycle          0

freq/Hz	Re(Z)/Ohm	-Im(Z)/Ohm	|Z|/Ohm	Phase(Z)/deg	time/s	<Ewe>/V	<I>/mA	Cs/µF	Cp/µF	cycle number	I Range	|Ewe|/V	|I|/A	Ns	(Q-Qo)/mA.h	THD Ewe/%	NSD Ewe/%	NSR Ewe/%	|Ewe h2|/V	|Ewe h3|/V	|Ewe h4|/V	|Ewe h5|/V	|Ewe h6|/V	|Ewe h7|/V	THD I/%	NSD I/%	NSR I/%	|I h2|/A	|I h3|/A	|I h4|/A	|I h5|/A	|I h6|/A	|I h7|/A	Re(Y)/Ohm-1	Im(Y)/Ohm-1	|Y|/Ohm-1	Phase(Y)/deg	Re(C)/nF	Im(C)/nF	|C|/nF	Phase(C)/deg	Re(M)	Im(M)	|M|	Phase(M)/deg	Re(Permittivity)	Im(Permittivity)	|Permittivity|	Phase(Permittivity)/deg	Re(Resistivity)/Ohm.cm	Im(Resistivity)/Ohm.cm	|Resistivity|/Ohm.cm	Phase(Resistivity)/deg	Re(Conductivity)/mS/cm	Im(Conductivity)/mS/cm	|Conductivity|/mS/cm	Phase(Conductivity)/deg	Tan(Delta)	Loss Angle(Delta)/deg	dq/mA.h
920001	-0.132949	0.00464927	0.13303	-177.997	1.97648	-0.000179934	-0.525083	37.2089	0.0454482	1	37	0.000371243	0.00279067	0	-0.000256255	-1	-1	-1	0	0	0	0	0	0	-1	-1	-1	0	0	0	0	0	0	-7.5125	0.262715	7.5171	177.997	45.4482	-1299.62	1300.42	87.9972	0.0000000E+000	0.0000000E+000	0.0000000E+000	-87.9972	0.0000000E+000	0.0000000E+000	0.0000000E+000	87.9972	0.0000000E+000	0.0000000E+000	0.0000000E+000	-177.997	0.0000000E+000	0.0000000E+000	0.0000000E+000	177.997	28.5956	87.9972	-0.000256255
290232	0.0617366	0.0336065	0.0702908	-28.5618	13.4475	-0.000170967	-0.506769	16.3175	3.72994	1	37	0.00156168	0.0222174	0	-0.00189418	-1	-1	-1	0	0	0	0	0	0	-1	-1	-1	0	0	0	0	0	0	12.4953	6.80183	14.2266	28.5618	3729.93	6852.06	7801.48	-61.4382	0.0000000E+000	0.0000000E+000	0.0000000E+000	61.4382	0.0000000E+000	0.0000000E+000	0.0000000E+000	-61.4382	0.0000000E+000	0.0000000E+000	0.0000000E+000	-28.5618	0.0000000E+000	0.0000000E+000	0.0000000E+000	28.5618	1.83704	61.4382	-0.000204279
91560.3	0.0745044	0.0161686	0.0762387	-12.2442	24.7915	-0.000193765	-0.512109	107.508	4.83543	1	37	0.00509821	0.0668718	0	-0.0036649	0.33542	0.154094	6.32665	6.13528e-06	7.71785e-06	4.0224e-06	7.03316e-06	5.09202e-06	8.50801e-06	0.101345	0.0185482	0.292647	1.48679e-05	6.56716e-05	4.81054e-06	2.27197e-06	1.94521e-06	3.81894e-06	12.8183	2.78178	13.1167	12.2442	4835.44	22281.5	22800.2	-77.7558	0.0000000E+000	0.0000000E+000	0.0000000E+000	77.7558	0.0000000E+000	0.0000000E+000	0.0000000E+000	-77.7558	0.0000000E+000	0.0000000E+000	0.0000000E+000	-12.2442	0.0000000E+000	0.0000000E+000	0.0000000E+000	12.2442	4.60796	77.7558	-0.000260808
28884	0.0809142	0.0155584	0.0823964	-10.8841	36.2715	-0.000189832	-0.51384	354.16	12.6273	1	37	0.00509433	0.0618271	0	-0.00503846	0.32883	0.20635	6.29452	5.40001e-06	8.2533e-06	3.27382e-06	7.03662e-06	7.29637e-06	5.55427e-06	0.134274	0.0443631	0.311424	1.77908e-05	8.02521e-05	3.36743e-06	8.40444e-06	4.27772e-06	4.16659e-06	11.9181	2.29164	12.1364	10.8841	12627.3	65670.6	66873.6	-79.1159	0.0000000E+000	0.0000000E+000	0.0000000E+000	79.1159	0.0000000E+000	0.0000000E+000	0.0000000E+000	-79.1159	0.0000000E+000	0.0000000E+000	0.0000000E+000	-10.8841	0.0000000E+000	0.0000000E+000	0.0000000E+000	10.8841	5.20069	79.1159	-0.000156814
9107.2	0.0921075	0.0214773	0.0945783	-13.1255	47.7565	-0.000296941	-0.740079	813.686	41.9596	1	37	0.00517709	0.0547386	0	-0.00637068	0.319314	0.135486	6.30064	6.44106e-06	9.3276e-06	6.12859e-06	6.24933e-06	4.32581e-06	4.95565e-06	0.13347	0.023739	0.352684	9.35507e-06	7.04703e-05	4.74894e-06	1.51303e-05	2.97536e-06	2.9505e-06	10.297	2.40102	10.5732	13.1255	41959.6	179948	184775	-76.8745	0.0000000E+000	0.0000000E+000	0.0000000E+000	76.8745	0.0000000E+000	0.0000000E+000	0.0000000E+000	-76.8745	0.0000000E+000	0.0000000E+000	0.0000000E+000	-13.1255	0.0000000E+000	0.0000000E+000	0.0000000E+000	13.1255	4.28861	76.8745	-0.000218497
2874.08	0.10937	0.0308486	0.113637	-15.7515	60.5758	-0.000289243	-0.701182	1795.09	132.286	1	37	0.00509611	0.0448455	0	-0.00904281	0.33652	0.158196	6.35695	6.12713e-06	7.66705e-06	5.73895e-06	5.39545e-06	7.83585e-06	6.11831e-06	0.0665235	0.107726	0.44478	4.52799e-06	2.70067e-05	3.45039e-06	5.43418e-06	6.23514e-06	6.4975e-06	8.46948	2.38888	8.79994	15.7515	132286	469005	487304	-74.2485	0.0000000E+000	0.0000000E+000	0.0000000E+000	74.2485	0.0000000E+000	0.0000000E+000	0.0000000E+000	-74.2485	0.0000000E+000	0.0000000E+000	0.0000000E+000	-15.7515	0.0000000E+000	0.0000000E+000	0.0000000E+000	15.7515	3.54538	74.2485	-0.000274038
907.034	0.13493	0.0438575	0.141878	-18.0062	73.8593	-0.000292281	-0.712349	4000.86	382.303	1	37	0.00499091	0.0351773	0	-0.0118523	0.335151	0.231928	6.46737	6.88785e-06	7.38988e-06	8.20504e-06	7.31068e-06	3.12417e-06	5.69459e-06	0.0460653	0.0625122	0.55878	7.10048e-06	1.01808e-05	5.23818e-06	6.79368e-06	3.70249e-06	3.68039e-06	6.70308	2.17877	7.04828	18.0062	382303	1.17617e+06	1.23674e+06	-71.9938	0.0000000E+000	0.0000000E+000	0.0000000E+000	71.9938	0.0000000E+000	0.0000000E+000	0.0000000E+000	-71.9938	0.0000000E+000	0.0000000E+000	0.0000000E+000	-18.0062	0.0000000E+000	0.0000000E+000	0.0000000E+000	18.0062	3.07655	71.9938	-0.00026976
286.007	0.169032	0.0619471	0.180026	-20.1269	85.368	-0.000271963	-0.680542	8983.02	1063.64	1	37	0.00539654	0.0299764	0	-0.0140475	0.273857	0.127634	5.98011	5.93327e-06	3.97969e-06	5.9047e-06	6.66245e-06	4.03225e-06	6.58511e-06	0.103435	0.0677653	0.654373	5.4162e-06	2.4491e-05	5.67962e-06	1.56337e-05	4.7741e-06	3.55873e-06	5.21553	1.91139	5.55475	20.1269	1.06364e+06	2.9023e+06	3.09106e+06	-69.8731	0.0000000E+000	0.0000000E+000	0.0000000E+000	69.8731	0.0000000E+000	0.0000000E+000	0.0000000E+000	-69.8731	0.0000000E+000	0.0000000E+000	0.0000000E+000	-20.1269	0.0000000E+000	0.0000000E+000	0.0000000E+000	20.1269	2.72866	69.8731	-0.000200677
90.2601	0.226511	0.0928426	0.2448	-22.2878	96.4392	-0.000269931	-0.682515	18992.3	2731.8	1	37	0.00519579	0.0212246	0	-0.0161172	0.357552	0.168928	6.21129	6.63794e-06	9.4198e-06	4.54379e-06	6.85612e-06	2.682e-06	8.78472e-06	0.179859	0.0479235	0.913903	1.06277e-05	2.43348e-05	3.24414e-06	2.54395e-05	4.25074e-06	6.48442e-06	3.77978	1.54926	4.08497	22.2878	2.7318e+06	6.66486e+06	7.20299e+06	-67.7122	0.0000000E+000	0.0000000E+000	0.0000000E+000	67.7122	0.0000000E+000	0.0000000E+000	0.0000000E+000	-67.7122	0.0000000E+000	0.0000000E+000	0.0000000E+000	-22.2878	0.0000000E+000	0.0000000E+000	0.0000000E+000	22.2878	2.43973	67.7122	-0.000233827
28.4608	0.320797	0.0907763	0.333393	-15.8	107.473	-0.000264376	-0.672931	61602.7	4567	1	37	0.00510038	0.0152984	0	-0.0182259	0.271584	0.194684	6.36962	5.26811e-06	6.31619e-06	4.73771e-06	5.80539e-06	5.14369e-06	3.1219e-06	0.174763	0.0457872	1.27245	6.95364e-06	1.51379e-05	3.60065e-06	1.83411e-05	5.36991e-06	5.9114e-06	2.88613	0.816692	2.99946	15.8	4.567e+06	1.61395e+07	1.67732e+07	-74.2	0.0000000E+000	0.0000000E+000	0.0000000E+000	74.2	0.0000000E+000	0.0000000E+000	0.0000000E+000	-74.2	0.0000000E+000	0.0000000E+000	0.0000000E+000	-15.8	0.0000000E+000	0.0000000E+000	0.0000000E+000	15.8	3.53393	74.2	-0.00021337
8.97989	0.374724	0.0482487	0.377818	-7.33692	118.698	-0.000269968	-0.681696	367336	5990.6	1	37	0.00507953	0.0134444	0	-0.0203342	0.236736	0.120773	4.433	4.21566e-06	4.729e-06	4.84961e-06	2.19967e-06	4.49333e-06	6.61468e-06	0.136856	0.0958949	1.05866	8.09764e-06	9.49609e-06	4.06601e-06	1.128e-05	3.95322e-06	2.94781e-06	2.62511	0.338004	2.64678	7.33692	5.9906e+06	4.65261e+07	4.69102e+07	-82.6631	0.0000000E+000	0.0000000E+000	0.0000000E+000	82.6631	0.0000000E+000	0.0000000E+000	0.0000000E+000	-82.6631	0.0000000E+000	0.0000000E+000	0.0000000E+000	-7.33692	0.0000000E+000	0.0000000E+000	0.0000000E+000	7.33692	7.76652	82.6631	-0.000199755
2.83369	0.39593	0.0227399	0.396583	-3.28712	136.227	-0.000269803	-0.681926	2.4699e+06	8120.6	1	37	0.00507501	0.0127968	0	-0.0234826	0.175379	0.103333	2.3965	2.47058e-06	5.79783e-06	3.26904e-06	3.6926e-06	2.50891e-06	2.26128e-06	0.26486	0.897289	0.749333	1.94955e-05	1.7938e-05	1.17542e-05	1.39895e-05	7.20382e-06	5.76168e-06	2.51739	0.144584	2.52154	3.28712	8.12061e+06	1.4139e+08	1.41623e+08	-86.7129	0.0000000E+000	0.0000000E+000	0.0000000E+000	86.7129	0.0000000E+000	0.0000000E+000	0.0000000E+000	-86.7129	0.0000000E+000	0.0000000E+000	0.0000000E+000	-3.28712	0.0000000E+000	0.0000000E+000	0.0000000E+000	3.28712	17.4113	86.7129	-0.000526494
0.893876	0.40014	0.0159096	0.400457	-2.27688	184.037	-0.000249191	-0.629431	1.11914e+07	17664.1	1	38	0.00507246	0.0126667	0	-0.0318275	0.127453	0.0407042	1.2949	2.38603e-06	4.21782e-06	1.28688e-06	2.81585e-06	2.22019e-06	1.19164e-06	0.125086	0.0663439	0.357557	5.02294e-06	1.01228e-05	2.42416e-06	9.28146e-06	2.52857e-06	2.49573e-06	2.49518	0.0992084	2.49715	2.27688	1.76641e+07	4.44267e+08	4.44618e+08	-87.7231	0.0000000E+000	0.0000000E+000	0.0000000E+000	87.7231	0.0000000E+000	0.0000000E+000	0.0000000E+000	-87.7231	0.0000000E+000	0.0000000E+000	0.0000000E+000	-2.27688	0.0000000E+000	0.0000000E+000	0.0000000E+000	2.27688	25.1509	87.7231	-0.000266422
0.281811	0.413171	0.0206041	0.413685	-2.85487	323.261	-0.000282571	-0.684132	2.741e+07	67994.9	1	38	0.00507293	0.0122628	0	-0.0576643	0.122276	0.101455	0.74975	2.65182e-06	4.13542e-06	1.44473e-06	2.20901e-06	2.08771e-06	8.50246e-07	0.130969	0.0479842	0.343855	4.08828e-06	1.0659e-05	1.55888e-06	1.07332e-05	2.18154e-06	1.66773e-06	2.4143	0.120396	2.4173	2.85487	6.79949e+07	1.3635e+09	1.36519e+09	-87.1451	0.0000000E+000	0.0000000E+000	0.0000000E+000	87.1451	0.0000000E+000	0.0000000E+000	0.0000000E+000	-87.1451	0.0000000E+000	0.0000000E+000	0.0000000E+000	-2.85487	0.0000000E+000	0.0000000E+000	0.0000000E+000	2.85487	20.0529	87.1451	-0.00231727
0.0888996	0.429118	0.0144958	0.429363	-1.93474	757.58	-0.000249505	-0.627168	1.23503e+08	140771	1	38	0.00507231	0.0118136	0	-0.139158	0.100644	0.140858	0.423248	2.55696e-06	3.56792e-06	4.95529e-07	1.96287e-06	9.98916e-07	8.06405e-07	0.134633	0.150657	0.256959	6.64196e-06	9.33555e-06	3.40187e-06	9.15662e-06	2.46357e-06	3.13686e-06	2.3277	0.078631	2.32903	1.93474	1.40771e+08	4.16724e+09	4.16961e+09	-88.0653	0.0000000E+000	0.0000000E+000	0.0000000E+000	88.0653	0.0000000E+000	0.0000000E+000	0.0000000E+000	-88.0653	0.0000000E+000	0.0000000E+000	0.0000000E+000	-1.93474	0.0000000E+000	0.0000000E+000	0.0000000E+000	1.93474	29.6029	88.0653	-0.0167266
0.0280409	0.428865	0.0103046	0.428989	-1.37641	2128.12	-0.000241621	-0.613122	5.50806e+08	317810	1	38	0.00507228	0.0118238	0	-0.38502	0.118151	0.0885224	0.266683	1.61908e-06	4.99713e-06	1.3354e-06	1.67873e-06	1.17512e-06	1.05333e-06	0.147776	0.154604	0.192122	9.32897e-06	9.64655e-06	4.95603e-06	7.65268e-06	4.6546e-06	1.46077e-06	2.33039	0.0559936	2.33106	1.37641	3.1781e+08	1.32269e+10	1.32307e+10	-88.6236	0.0000000E+000	0.0000000E+000	0.0000000E+000	88.6236	0.0000000E+000	0.0000000E+000	0.0000000E+000	-88.6236	0.0000000E+000	0.0000000E+000	0.0000000E+000	-1.37641	0.0000000E+000	0.0000000E+000	0.0000000E+000	1.37641	41.6189	88.6236	-0.0324098
0.0250094	0.428789	0.0101087	0.428908	-1.35049	2372.58	-0.000253644	-0.645389	6.29539e+08	349689	1	38	0.00507178	0.0118249	0	-0.415751	0.107714	0.0901047	0.265892	2.12648e-06	4.46795e-06	1.15749e-06	1.60098e-06	9.12388e-07	4.7724e-07	0.157229	0.154473	0.195752	5.26995e-06	1.40939e-05	3.41186e-06	9.08044e-06	1.88122e-06	3.56292e-06	2.33086	0.0549498	2.3315	1.35049	3.49689e+08	1.48331e+10	1.48372e+10	-88.6495	0.0000000E+000	0.0000000E+000	0.0000000E+000	88.6495	0.0000000E+000	0.0000000E+000	0.0000000E+000	-88.6495	0.0000000E+000	0.0000000E+000	0.0000000E+000	-1.35049	0.0000000E+000	0.0000000E+000	0.0000000E+000	1.35049	42.4179	88.6495	-0.0307314