File: Python/Experiments/IRFB/FirstCell/Data/240405-EIS-50mM_FeCl2FeCl3-1M_HCl-30mLmin-LowFreq_20ppd_C15.mpt
EC-Lab ASCII FILE
Nb header lines : 66

Potentio Electrochemical Impedance Spectroscopy

Run on channel : 15 (SN 19485)
User :
Electrode connection : standard
Potential control : Ewe
Ewe ctrl range : min = -1.00 V, max = 1.00 V
Ewe,I filtering : <None>
Safety Limits :
	Do not start on E overload
Channel : Floating
Acquisition started on : 04/05/2024 14:02:43.389
Loaded Setting File :  NONE
Saved on :
	File : 240405-EIS-50mM_FeCl2FeCl3-1M_HCl-30mLmin-LowFreq_20ppd_C15.mpr
	Directory : C:\Data\mathias\IRFB\
	Host : 192.168.0.1
Device : VMP-300 (SN 0826)
Address : USB
EC-Lab for windows v11.52 (software)
Internet server v11.52 (firmware)
Command interpretor v11.52 (firmware)
Electrode material :
Initial state :
Electrolyte :
Comments :
Cable : special
Electrode surface area : 0.001 cm²
Characteristic mass : 0.001 g
Equivalent Weight : 0.000 g/eq.
Density : 0.000 g/cm3
Volume (V) : 0.001 cm³
Record EIS quality indicators
Cycle Definition : Charge/Discharge alternance
Mode                Single sine
E (V)               0.0000
vs.                 Eoc
tE (h:m:s)          0:00:0.0000
record              0
dI                  0.000
unit dI             mA
dt (s)              0.000
fi                  300.000
unit fi             kHz
ff                  25.000
unit ff             mHz
Nd                  20
Points              per decade
spacing             Logarithmic
Va (mV)             5.0
pw                  0.10
Na                  3
corr                0
E range min (V)     -1.000
E range max (V)     1.000
I Range             Auto
Bandwidth           8
nc cycles           2
goto Ns'            0
nr cycles           0
inc. cycle          0

freq/Hz	Re(Z)/Ohm	-Im(Z)/Ohm	|Z|/Ohm	Phase(Z)/deg	time/s	<Ewe>/V	<I>/mA	Cs/µF	Cp/µF	cycle number	I Range	|Ewe|/V	|I|/A	Ns	(Q-Qo)/mA.h	THD Ewe/%	NSD Ewe/%	NSR Ewe/%	|Ewe h2|/V	|Ewe h3|/V	|Ewe h4|/V	|Ewe h5|/V	|Ewe h6|/V	|Ewe h7|/V	THD I/%	NSD I/%	NSR I/%	|I h2|/A	|I h3|/A	|I h4|/A	|I h5|/A	|I h6|/A	|I h7|/A	Re(Y)/Ohm-1	Im(Y)/Ohm-1	|Y|/Ohm-1	Phase(Y)/deg	Re(C)/nF	Im(C)/nF	|C|/nF	Phase(C)/deg	Re(M)	Im(M)	|M|	Phase(M)/deg	Re(Permittivity)	Im(Permittivity)	|Permittivity|	Phase(Permittivity)/deg	Re(Resistivity)/Ohm.cm	Im(Resistivity)/Ohm.cm	|Resistivity|/Ohm.cm	Phase(Resistivity)/deg	Re(Conductivity)/mS/cm	Im(Conductivity)/mS/cm	|Conductivity|/mS/cm	Phase(Conductivity)/deg	Tan(Delta)	Loss Angle(Delta)/deg	dq/mA.h
300002	0.0443908	-0.0485283	0.0657688	47.5496	1.82249	-7.07364e-05	-0.444235	-10.932	-5.95184	1	37	0.00145356	0.022101	0	-0.000198522	-1	-1	-1	0	0	0	0	0	0	-1	-1	-1	0	0	0	0	0	0	10.2625	-11.219	15.2048	-47.5496	-5951.84	5444.39	8066.34	-137.55	0.0000000E+000	0.0000000E+000	0.0000000E+000	137.55	0.0000000E+000	0.0000000E+000	0.0000000E+000	-137.55	0.0000000E+000	0.0000000E+000	0.0000000E+000	47.5496	0.0000000E+000	0.0000000E+000	0.0000000E+000	-47.5496	0.914741	42.4504	-0.000198522
15170.4	0.0626374	0.00868363	0.0632365	-7.89279	31.5455	-6.19192e-05	-0.372692	1208.16	22.7819	1	37	0.00508937	0.0804816	0	-0.00355248	0.388127	0.170509	7.29594	6.09572e-06	1.27157e-05	7.01215e-06	5.97715e-06	3.85139e-06	8.62788e-06	0.1808	0.039586	0.287995	1.74787e-05	0.000142417	3.12591e-06	2.22972e-05	3.78406e-06	3.72617e-06	15.6638	2.17153	15.8137	7.89279	22781.9	164332	165904	-82.1072	0.0000000E+000	0.0000000E+000	0.0000000E+000	82.1072	0.0000000E+000	0.0000000E+000	0.0000000E+000	-82.1072	0.0000000E+000	0.0000000E+000	0.0000000E+000	-7.89279	0.0000000E+000	0.0000000E+000	0.0000000E+000	7.89279	7.21328	82.1072	-0.000149446
766.717	0.10184	0.0343671	0.107482	-18.6476	64.8023	-0.000194436	-0.852138	6040.07	617.525	1	37	0.00507683	0.0472341	0	-0.0105415	0.345276	0.193184	7.34191	8.65337e-06	5.1212e-06	6.9624e-06	5.289e-06	4.57426e-06	6.37761e-06	0.0475987	0.0130142	0.488378	7.77549e-06	1.19149e-05	6.02963e-06	1.41391e-05	5.01323e-06	3.52571e-06	8.81543	2.97488	9.30386	18.6476	617525	1.82991e+06	1.93129e+06	-71.3524	0.0000000E+000	0.0000000E+000	0.0000000E+000	71.3524	0.0000000E+000	0.0000000E+000	0.0000000E+000	-71.3524	0.0000000E+000	0.0000000E+000	0.0000000E+000	-18.6476	0.0000000E+000	0.0000000E+000	0.0000000E+000	18.6476	2.96329	71.3524	-0.000265544
38.7717	0.197327	0.0353884	0.200475	-10.1673	94.2521	-0.000175106	-0.804586	115996	3614.49	1	37	0.00496366	0.0247595	0	-0.0168357	0.360358	0.209116	7.40583	6.56041e-06	1.04065e-05	7.50979e-06	6.7222e-06	3.32671e-06	4.70748e-06	0.160314	0.0695413	0.952052	1.2178e-05	2.30482e-05	1.23437e-05	2.48274e-05	7.35955e-06	4.41619e-06	4.90983	0.880525	4.98816	10.1673	3.61449e+06	2.01545e+07	2.0476e+07	-79.8327	0.0000000E+000	0.0000000E+000	0.0000000E+000	79.8327	0.0000000E+000	0.0000000E+000	0.0000000E+000	-79.8327	0.0000000E+000	0.0000000E+000	0.0000000E+000	-10.1673	0.0000000E+000	0.0000000E+000	0.0000000E+000	10.1673	5.57602	79.8327	-0.000282173
1.9595	0.219136	0.00679988	0.219242	-1.77734	135.794	-0.000164254	-0.769642	1.19447e+07	11490.3	1	37	0.00493586	0.0225133	0	-0.026266	0.141559	0.0682339	2.32182	1.86041e-06	3.68142e-06	2.11771e-06	2.89619e-06	1.4519e-06	2.85728e-06	0.123311	0.0809437	0.672547	7.64969e-06	2.28389e-05	2.50812e-06	1.3041e-05	1.84984e-06	1.32533e-06	4.55898	0.141467	4.56118	1.77734	1.14903e+07	3.70292e+08	3.7047e+08	-88.2227	0.0000000E+000	0.0000000E+000	0.0000000E+000	88.2227	0.0000000E+000	0.0000000E+000	0.0000000E+000	-88.2227	0.0000000E+000	0.0000000E+000	0.0000000E+000	-1.77734	0.0000000E+000	0.0000000E+000	0.0000000E+000	1.77734	32.2265	88.2227	-0.00105673
0.0991173	0.243455	0.0082067	0.243593	-1.93067	685.439	-0.000157556	-0.830891	1.9566e+08	222080	1	38	0.00492721	0.0202272	0	-0.158882	0.111635	0.113513	0.505198	2.91196e-06	4.02065e-06	8.18244e-07	1.49442e-06	1.12858e-06	3.84612e-07	0.12108	0.154963	0.421469	6.00719e-06	1.65329e-05	3.56853e-06	1.49329e-05	4.50277e-06	2.09021e-06	4.10288	0.138305	4.10521	1.93067	2.2208e+08	6.58809e+09	6.59183e+09	-88.0693	0.0000000E+000	0.0000000E+000	0.0000000E+000	88.0693	0.0000000E+000	0.0000000E+000	0.0000000E+000	-88.0693	0.0000000E+000	0.0000000E+000	0.0000000E+000	-1.93067	0.0000000E+000	0.0000000E+000	0.0000000E+000	1.93067	29.6654	88.0693	-0.0121057
67454.7	0.0562097	-0.00682317	0.0566223	6.92115	2389.72	-6.11363e-05	-0.37405	-345.797	-5.02134	2	37	0.00509605	0.0900008	0	-0.487001	0.369912	0.266612	7.41561	5.61776e-06	3.76915e-06	6.50422e-06	4.56238e-06	8.31753e-06	1.18182e-05	0.156893	0.0455727	0.262733	3.30495e-05	0.000136337	8.44476e-06	7.76193e-06	5.01035e-06	3.44538e-06	17.5322	-2.1282	17.6609	-6.92115	-5021.34	41366.1	41669.7	-96.9211	0.0000000E+000	0.0000000E+000	0.0000000E+000	96.9211	0.0000000E+000	0.0000000E+000	0.0000000E+000	-96.9211	0.0000000E+000	0.0000000E+000	0.0000000E+000	6.92115	0.0000000E+000	0.0000000E+000	0.0000000E+000	-6.92115	8.23806	83.0789	-0.000173997
3411.09	0.0762736	0.0204478	0.0789669	-15.0073	2420.65	-0.000185041	-0.769019	2281.81	152.997	2	37	0.00508069	0.0643394	0	-0.490746	0.423761	0.181062	7.24845	8.09394e-06	1.16419e-05	2.63773e-06	8.08041e-06	4.05839e-06	1.23561e-05	0.125418	0.0148034	0.362072	2.22178e-05	7.6954e-05	4.90755e-06	5.00192e-06	4.20161e-06	2.57119e-06	12.2316	3.27912	12.6635	15.0073	152997	570704	590856	-74.9927	0.0000000E+000	0.0000000E+000	0.0000000E+000	74.9927	0.0000000E+000	0.0000000E+000	0.0000000E+000	-74.9927	0.0000000E+000	0.0000000E+000	0.0000000E+000	-15.0073	0.0000000E+000	0.0000000E+000	0.0000000E+000	15.0073	3.73016	74.9927	-0.000300261
172.484	0.144089	0.0480218	0.15188	-18.4322	2452.98	-0.000181723	-0.81365	19214.7	1920.91	2	37	0.0053301	0.035094	0	-0.498151	0.340566	0.190015	6.9091	9.62791e-06	3.99924e-06	7.35782e-06	8.50271e-06	5.29455e-06	5.79875e-06	0.131872	0.0317002	0.663798	6.8758e-06	3.52213e-05	1.13759e-05	2.5584e-05	6.20621e-06	3.30955e-06	6.24635	2.08178	6.58413	18.4322	1.92091e+06	5.76366e+06	6.07533e+06	-71.5678	0.0000000E+000	0.0000000E+000	0.0000000E+000	71.5678	0.0000000E+000	0.0000000E+000	0.0000000E+000	-71.5678	0.0000000E+000	0.0000000E+000	0.0000000E+000	-18.4322	0.0000000E+000	0.0000000E+000	0.0000000E+000	18.4322	3.00049	71.5678	-0.000284826
8.71934	0.215516	0.0130595	0.215911	-3.46769	2481.58	-0.000150509	-0.739419	1.39768e+06	5113.46	2	37	0.00508927	0.0235712	0	-0.504243	0.32124	0.15831	5.00268	5.43004e-06	8.04818e-06	8.31255e-06	7.07575e-06	3.94894e-06	3.26205e-06	0.242742	0.085968	0.791048	7.26401e-06	2.70825e-05	8.98175e-06	1.57394e-05	4.42793e-05	9.17352e-06	4.62306	0.280142	4.63154	3.46769	5.11346e+06	8.43851e+07	8.45399e+07	-86.5323	0.0000000E+000	0.0000000E+000	0.0000000E+000	86.5323	0.0000000E+000	0.0000000E+000	0.0000000E+000	-86.5323	0.0000000E+000	0.0000000E+000	0.0000000E+000	-3.46769	0.0000000E+000	0.0000000E+000	0.0000000E+000	3.46769	16.5025	86.5323	-0.000164407
0.440787	0.225788	0.0142232	0.226235	-3.6045	2614.14	-0.000145372	-0.704815	2.5386e+07	100338	2	38	0.005086	0.022481	0	-0.532379	0.103993	0.0402724	0.983855	1.26439e-06	3.92809e-06	1.36326e-06	2.45571e-06	1.31282e-06	7.52728e-07	0.111059	0.0684468	0.579022	6.27114e-06	1.73919e-05	1.98843e-06	1.55499e-05	3.18139e-06	3.36294e-06	4.41143	0.277892	4.42017	3.6045	1.00338e+08	1.59284e+09	1.59599e+09	-86.3955	0.0000000E+000	0.0000000E+000	0.0000000E+000	86.3955	0.0000000E+000	0.0000000E+000	0.0000000E+000	-86.3955	0.0000000E+000	0.0000000E+000	0.0000000E+000	-3.6045	0.0000000E+000	0.0000000E+000	0.0000000E+000	3.6045	15.8746	86.3955	-0.00306229
300002	0.0443873	-0.0486024	0.0658212	47.5954	4748.05	-6.1677e-05	-0.346842	-10.9154	-5.95145	3	37	0.00145339	0.0220809	0	-0.986449	-1	-1	-1	0	0	0	0	0	0	-1	-1	-1	0	0	0	0	0	0	10.2454	-11.2183	15.1927	-47.5954	-5951.45	5435.3	8059.92	-137.595	0.0000000E+000	0.0000000E+000	0.0000000E+000	137.595	0.0000000E+000	0.0000000E+000	0.0000000E+000	-137.595	0.0000000E+000	0.0000000E+000	0.0000000E+000	47.5954	0.0000000E+000	0.0000000E+000	0.0000000E+000	-47.5954	0.913273	42.4046	-3.90571e-05
15170.4	0.0625852	0.0086109	0.0631748	-7.83396	4777.78	-6.2348e-05	-0.272191	1218.36	22.6353	3	37	0.00508241	0.08045	0	-0.991031	0.449472	0.18822	7.39628	5.18315e-06	1.50442e-05	7.13342e-06	6.31112e-06	6.96093e-06	1.03864e-05	0.174395	0.0442743	0.287344	1.11929e-05	0.000136742	7.68608e-06	2.75882e-05	3.70226e-06	2.79779e-06	15.6814	2.15755	15.8291	7.83396	22635.3	164516	166066	-82.166	0.0000000E+000	0.0000000E+000	0.0000000E+000	82.166	0.0000000E+000	0.0000000E+000	0.0000000E+000	-82.166	0.0000000E+000	0.0000000E+000	0.0000000E+000	-7.83396	0.0000000E+000	0.0000000E+000	0.0000000E+000	7.83396	7.26814	82.166	-0.000108202
766.717	0.101906	0.034359	0.107543	-18.6322	4811.04	-0.000177473	-0.752902	6041.49	616.688	3	37	0.00496182	0.0461382	0	-0.997655	0.292233	0.176455	7.47212	4.20137e-06	5.20607e-06	7.74776e-06	6.36029e-06	4.85537e-06	3.56669e-06	0.0518157	0.0191121	0.51028	7.39653e-06	1.73659e-05	4.51683e-06	1.24695e-05	2.8207e-06	4.51099e-06	8.81129	2.97085	9.29865	18.6322	616688	1.82905e+06	1.93021e+06	-71.3678	0.0000000E+000	0.0000000E+000	0.0000000E+000	71.3678	0.0000000E+000	0.0000000E+000	0.0000000E+000	-71.3678	0.0000000E+000	0.0000000E+000	0.0000000E+000	-18.6322	0.0000000E+000	0.0000000E+000	0.0000000E+000	18.6322	2.96592	71.3678	-0.000336739
38.7717	0.198077	0.0359052	0.201304	-10.2744	4840.27	-0.000150463	-0.729304	114327	3637.11	3	37	0.00511966	0.0254324	0	-1.00321	0.35931	0.209691	7.23337	9.80037e-06	8.00707e-06	3.46737e-06	6.77066e-06	7.44787e-06	3.07727e-06	0.146171	0.0651853	0.915226	5.67142e-06	2.51863e-05	5.45819e-06	2.52475e-05	4.15494e-06	4.00814e-06	4.88794	0.886035	4.9676	10.2744	3.6371e+06	2.00646e+07	2.03916e+07	-79.7256	0.0000000E+000	0.0000000E+000	0.0000000E+000	79.7256	0.0000000E+000	0.0000000E+000	0.0000000E+000	-79.7256	0.0000000E+000	0.0000000E+000	0.0000000E+000	-10.2744	0.0000000E+000	0.0000000E+000	0.0000000E+000	10.2744	5.51665	79.7256	-0.000234612
1.9595	0.220342	0.00685972	0.220448	-1.78317	4881.82	-0.000139152	-0.717164	1.18405e+07	11464.9	3	37	0.00509035	0.0230909	0	-1.01103	0.141304	0.106376	2.22188	2.83344e-06	4.03852e-06	1.90914e-06	3.88304e-06	1.6185e-06	1.49497e-06	0.124511	0.0733123	0.65875	9.02094e-06	2.2243e-05	1.81235e-06	1.46995e-05	2.94647e-06	2.93761e-06	4.53401	0.141154	4.53621	1.78317	1.14648e+07	3.68264e+08	3.68442e+08	-88.2168	0.0000000E+000	0.0000000E+000	0.0000000E+000	88.2168	0.0000000E+000	0.0000000E+000	0.0000000E+000	-88.2168	0.0000000E+000	0.0000000E+000	0.0000000E+000	-1.78317	0.0000000E+000	0.0000000E+000	0.0000000E+000	1.78317	32.1211	88.2168	-0.000390339
0.221474	0.23679	0.0141367	0.237211	-3.41658	5115.53	-0.000151278	-0.759965	5.08334e+07	180539	3	38	0.00508629	0.021442	0	-1.06182	0.111524	0.0428835	0.717558	2.16107e-06	4.24837e-06	1.06626e-06	2.06681e-06	1.11117e-06	1.10589e-06	0.122802	0.0420135	0.553764	5.5263e-06	1.85802e-05	3.08154e-06	1.68511e-05	3.2993e-06	2.49864e-06	4.20815	0.251232	4.21565	3.41658	1.8054e+08	3.02404e+09	3.02943e+09	-86.5834	0.0000000E+000	0.0000000E+000	0.0000000E+000	86.5834	0.0000000E+000	0.0000000E+000	0.0000000E+000	-86.5834	0.0000000E+000	0.0000000E+000	0.0000000E+000	-3.41658	0.0000000E+000	0.0000000E+000	0.0000000E+000	3.41658	16.75	86.5834	-0.0100827