File: Python/Experiments/IRFB/FirstCell/Data/240415-EIS-50mM_FeCl2FeCl3-1M_HCl-40mLmin_Dampened-25mHz_20ppd_C15.mpt
EC-Lab ASCII FILE
Nb header lines : 66

Potentio Electrochemical Impedance Spectroscopy

Run on channel : 15 (SN 19485)
User :
Electrode connection : standard
Potential control : Ewe
Ewe ctrl range : min = -1.00 V, max = 1.00 V
Ewe,I filtering : <None>
Safety Limits :
	Do not start on E overload
Channel : Floating
Acquisition started on : 04/15/2024 10:35:43.840
Loaded Setting File :  NONE
Saved on :
	File : 240415-EIS-50mM_FeCl2FeCl3-1M_HCl-40mLmin_Dampened-25mHz_20ppd_C15.mpr
	Directory : C:\Data\mathias\IRFB\
	Host : 192.168.0.1
Device : VMP-300 (SN 0826)
Address : USB
EC-Lab for windows v11.52 (software)
Internet server v11.52 (firmware)
Command interpretor v11.52 (firmware)
Electrode material :
Initial state :
Electrolyte :
Comments :
Cable : special
Electrode surface area : 0.001 cm²
Characteristic mass : 0.001 g
Equivalent Weight : 0.000 g/eq.
Density : 0.000 g/cm3
Volume (V) : 0.001 cm³
Record EIS quality indicators
Cycle Definition : Charge/Discharge alternance
Mode                Single sine
E (V)               0.0000
vs.                 Eoc
tE (h:m:s)          0:00:0.0000
record              0
dI                  0.000
unit dI             mA
dt (s)              0.000
fi                  920.000
unit fi             kHz
ff                  25.000
unit ff             mHz
Nd                  20
Points              per decade
spacing             Logarithmic
Va (mV)             5.0
pw                  0.10
Na                  3
corr                0
E range min (V)     -1.000
E range max (V)     1.000
I Range             Auto
Bandwidth           8
nc cycles           0
goto Ns'            0
nr cycles           0
inc. cycle          1

freq/Hz	Re(Z)/Ohm	-Im(Z)/Ohm	|Z|/Ohm	Phase(Z)/deg	time/s	<Ewe>/V	<I>/mA	Cs/µF	Cp/µF	cycle number	I Range	|Ewe|/V	|I|/A	Ns	(Q-Qo)/mA.h	THD Ewe/%	NSD Ewe/%	NSR Ewe/%	|Ewe h2|/V	|Ewe h3|/V	|Ewe h4|/V	|Ewe h5|/V	|Ewe h6|/V	|Ewe h7|/V	THD I/%	NSD I/%	NSR I/%	|I h2|/A	|I h3|/A	|I h4|/A	|I h5|/A	|I h6|/A	|I h7|/A	Re(Y)/Ohm-1	Im(Y)/Ohm-1	|Y|/Ohm-1	Phase(Y)/deg	Re(C)/nF	Im(C)/nF	|C|/nF	Phase(C)/deg	Re(M)	Im(M)	|M|	Phase(M)/deg	Re(Permittivity)	Im(Permittivity)	|Permittivity|	Phase(Permittivity)/deg	Re(Resistivity)/Ohm.cm	Im(Resistivity)/Ohm.cm	|Resistivity|/Ohm.cm	Phase(Resistivity)/deg	Re(Conductivity)/mS/cm	Im(Conductivity)/mS/cm	|Conductivity|/mS/cm	Phase(Conductivity)/deg	Tan(Delta)	Loss Angle(Delta)/deg	dq/mA.h
920001	-0.128795	0.0138334	0.129535	-173.87	2.1675	-2.6763e-05	-0.0425856	12.5055	0.142622	1	37	0.00035826	0.00276573	0	-2.17145e-05	-1	-1	-1	0	0	0	0	0	0	-1	-1	-1	0	0	0	0	0	0	-7.67576	0.82443	7.7199	173.87	142.622	-1327.86	1335.5	83.8695	0.0000000E+000	0.0000000E+000	0.0000000E+000	-83.8695	0.0000000E+000	0.0000000E+000	0.0000000E+000	83.8695	0.0000000E+000	0.0000000E+000	0.0000000E+000	-173.87	0.0000000E+000	0.0000000E+000	0.0000000E+000	173.87	9.31039	83.8695	-2.17145e-05
290232	0.0647767	0.035565	0.0738978	-28.7685	13.6375	-2.06674e-05	-0.0245879	15.4189	3.57137	1	37	0.00164575	0.0222706	0	-0.000156946	-1	-1	-1	0	0	0	0	0	0	-1	-1	-1	0	0	0	0	0	0	11.8619	6.51267	13.5322	28.7685	3571.37	6504.75	7420.68	-61.2315	0.0000000E+000	0.0000000E+000	0.0000000E+000	61.2315	0.0000000E+000	0.0000000E+000	0.0000000E+000	-61.2315	0.0000000E+000	0.0000000E+000	0.0000000E+000	-28.7685	0.0000000E+000	0.0000000E+000	0.0000000E+000	28.7685	1.82136	61.2315	-1.52167e-05
91560.3	0.0777437	0.016818	0.079542	-12.2065	24.9815	-2.79186e-05	-0.0167329	103.357	4.62055	1	37	0.00511671	0.0643272	0	3.07621e-06	0.333828	0.226976	6.25692	4.9355e-06	6.03674e-06	5.77411e-06	6.40407e-06	6.8334e-06	8.42978e-06	0.102263	0.019583	0.297391	1.35616e-05	6.39252e-05	4.14546e-06	3.11837e-06	3.75557e-06	3.02067e-06	12.2877	2.65816	12.572	12.2065	4620.55	21359.2	21853.3	-77.7935	0.0000000E+000	0.0000000E+000	0.0000000E+000	77.7935	0.0000000E+000	0.0000000E+000	0.0000000E+000	-77.7935	0.0000000E+000	0.0000000E+000	0.0000000E+000	-12.2065	0.0000000E+000	0.0000000E+000	0.0000000E+000	12.2065	4.62265	77.7935	0.000108541
28884	0.0845326	0.0159799	0.0860298	-10.7048	36.4605	-3.78914e-05	-0.0463438	344.818	11.897	1	37	0.0051001	0.059283	0	0.000181856	0.297024	0.2158	6.32022	5.69703e-06	5.27616e-06	5.20574e-06	6.24682e-06	8.07589e-06	3.86826e-06	0.124674	0.0445409	0.326774	1.2741e-05	7.19937e-05	3.52656e-06	7.40458e-06	5.35546e-06	4.65116e-06	11.4216	2.15911	11.6239	10.7048	11897	62934.7	64049.3	-79.2952	0.0000000E+000	0.0000000E+000	0.0000000E+000	79.2952	0.0000000E+000	0.0000000E+000	0.0000000E+000	-79.2952	0.0000000E+000	0.0000000E+000	0.0000000E+000	-10.7048	0.0000000E+000	0.0000000E+000	0.0000000E+000	10.7048	5.28995	79.2952	6.32367e-06
9107.2	0.0957366	0.0216217	0.0981478	-12.7265	47.9455	-0.000151842	-0.278594	808.251	39.2251	1	37	0.00517926	0.05277	0	3.62541e-05	0.277598	0.191613	6.18212	7.08702e-06	7.46001e-06	3.12427e-06	4.57507e-06	4.83786e-06	4.68e-06	0.121827	0.0218615	0.366272	4.51742e-06	6.30669e-05	3.64854e-06	9.89998e-06	3.49534e-06	2.51849e-06	9.93841	2.24455	10.1887	12.7265	39225.1	173681	178055	-77.2735	0.0000000E+000	0.0000000E+000	0.0000000E+000	77.2735	0.0000000E+000	0.0000000E+000	0.0000000E+000	-77.2735	0.0000000E+000	0.0000000E+000	0.0000000E+000	-12.7265	0.0000000E+000	0.0000000E+000	0.0000000E+000	12.7265	4.4278	77.2735	-7.60155e-05
2874.08	0.113036	0.0312565	0.117278	-15.4571	60.7678	-0.000151059	-0.279748	1771.66	125.843	1	37	0.0051088	0.0435616	0	-0.000932256	0.307069	0.27088	6.24664	6.30205e-06	4.33993e-06	3.31077e-06	6.04095e-06	1.01792e-05	3.39283e-06	0.0546351	0.0909208	0.450552	3.69503e-06	2.04397e-05	4.43466e-06	7.2145e-06	4.32959e-06	4.52544e-06	8.21836	2.27253	8.52677	15.4571	125843	455099	472177	-74.5429	0.0000000E+000	0.0000000E+000	0.0000000E+000	74.5429	0.0000000E+000	0.0000000E+000	0.0000000E+000	-74.5429	0.0000000E+000	0.0000000E+000	0.0000000E+000	-15.4571	0.0000000E+000	0.0000000E+000	0.0000000E+000	15.4571	3.61639	74.5429	-2.75078e-05
907.034	0.138625	0.0447686	0.145675	-17.8977	73.8283	-0.000151059	-0.270796	3919.43	370.169	1	37	0.00544168	0.037355	0	-0.00173473	0.315163	0.160801	6.05175	9.88323e-06	4.36727e-06	2.75408e-06	5.24214e-06	8.36515e-06	7.42429e-06	0.0445838	0.0797443	0.524037	3.67674e-06	8.74346e-06	6.76002e-06	8.32651e-06	5.79686e-06	3.69592e-06	6.5324	2.10962	6.8646	17.8977	370169	1.14622e+06	1.20451e+06	-72.1023	0.0000000E+000	0.0000000E+000	0.0000000E+000	72.1023	0.0000000E+000	0.0000000E+000	0.0000000E+000	-72.1023	0.0000000E+000	0.0000000E+000	0.0000000E+000	-17.8977	0.0000000E+000	0.0000000E+000	0.0000000E+000	17.8977	3.09649	72.1023	-5.02135e-05
286.007	0.172435	0.0648265	0.184218	-20.6036	85.562	-0.000118717	-0.222463	8584.03	1063	1	37	0.00507258	0.0275357	0	-0.00255885	0.362537	0.148639	6.37466	5.92088e-06	1.13453e-05	7.74186e-06	6.5071e-06	5.21221e-06	4.13166e-06	0.112915	0.119842	0.718585	6.86162e-06	2.47971e-05	4.09659e-06	1.41342e-05	6.46634e-06	3.12311e-06	5.08114	1.91024	5.42835	20.6036	1.063e+06	2.82751e+06	3.02073e+06	-69.3964	0.0000000E+000	0.0000000E+000	0.0000000E+000	69.3964	0.0000000E+000	0.0000000E+000	0.0000000E+000	-69.3964	0.0000000E+000	0.0000000E+000	0.0000000E+000	-20.6036	0.0000000E+000	0.0000000E+000	0.0000000E+000	20.6036	2.65995	69.3964	-7.97195e-05
90.2601	0.230795	0.104591	0.253389	-24.3789	96.6332	-0.00011965	-0.235603	16858.9	2872.4	1	37	0.00488245	0.0192686	0	-0.00320765	0.285556	0.201304	6.62224	5.7907e-06	8.85544e-06	3.8238e-06	2.11877e-06	2.84974e-06	4.73287e-06	0.186243	0.0768372	1.01679	1.13555e-05	2.05052e-05	3.6049e-06	2.58807e-05	5.95271e-06	2.50975e-06	3.59462	1.629	3.94651	24.3789	2.8724e+06	6.33837e+06	6.95885e+06	-65.6211	0.0000000E+000	0.0000000E+000	0.0000000E+000	65.6211	0.0000000E+000	0.0000000E+000	0.0000000E+000	-65.6211	0.0000000E+000	0.0000000E+000	0.0000000E+000	-24.3789	0.0000000E+000	0.0000000E+000	0.0000000E+000	24.3789	2.20665	65.6211	-7.51212e-05
28.4608	0.342778	0.114957	0.361541	-18.5398	107.666	-0.000114896	-0.214237	48644.9	4918.04	1	37	0.00478364	0.0132313	0	-0.00396733	0.299722	0.208514	6.78168	6.45277e-06	6.07713e-06	5.98828e-06	4.76382e-06	4.5889e-06	4.46564e-06	0.213764	0.0996051	1.47895	7.96584e-06	1.40507e-05	5.44656e-06	2.05192e-05	8.01983e-06	2.67441e-06	2.6224	0.879468	2.76594	18.5398	4.91805e+06	1.46646e+07	1.54673e+07	-71.4602	0.0000000E+000	0.0000000E+000	0.0000000E+000	71.4602	0.0000000E+000	0.0000000E+000	0.0000000E+000	-71.4602	0.0000000E+000	0.0000000E+000	0.0000000E+000	-18.5398	0.0000000E+000	0.0000000E+000	0.0000000E+000	18.5398	2.9818	71.4602	-6.53232e-05
8.97989	0.419102	0.0661948	0.424298	-8.9754	118.896	-0.000124738	-0.228577	267748	6516.76	1	37	0.00476603	0.0112328	0	-0.00466012	0.24267	0.204908	4.6555	5.37878e-06	2.87395e-06	2.30834e-06	6.02494e-06	3.89352e-06	3.87158e-06	0.1719	0.110539	1.25106	7.73398e-06	7.39163e-06	5.55028e-06	1.29303e-05	5.78938e-06	3.20868e-06	2.32798	0.367691	2.35684	8.9754	6.51676e+06	4.12599e+07	4.17714e+07	-81.0246	0.0000000E+000	0.0000000E+000	0.0000000E+000	81.0246	0.0000000E+000	0.0000000E+000	0.0000000E+000	-81.0246	0.0000000E+000	0.0000000E+000	0.0000000E+000	-8.9754	0.0000000E+000	0.0000000E+000	0.0000000E+000	8.9754	6.33135	81.0246	-6.09914e-05
2.83369	0.442503	0.0309476	0.443584	-4.00061	136.426	-0.000121374	-0.243913	1.81485e+06	8833.68	1	37	0.00476508	0.0107422	0	-0.00600498	0.153763	0.115951	2.5994	2.76835e-06	4.93473e-06	2.2872e-06	1.55479e-06	2.28687e-06	1.68059e-06	0.133003	0.0772126	0.842001	4.92963e-06	7.45405e-06	5.78413e-06	7.66213e-06	1.8562e-06	4.58775e-06	2.24887	0.15728	2.25436	4.00061	8.83368e+06	1.26308e+08	1.26617e+08	-85.9994	0.0000000E+000	0.0000000E+000	0.0000000E+000	85.9994	0.0000000E+000	0.0000000E+000	0.0000000E+000	-85.9994	0.0000000E+000	0.0000000E+000	0.0000000E+000	-4.00061	0.0000000E+000	0.0000000E+000	0.0000000E+000	4.00061	14.2985	85.9994	-0.000313643
0.893876	0.451487	0.0203037	0.451943	-2.5749	184.098	-0.000128232	-0.223456	8.76936e+06	17699.1	1	38	0.00476413	0.0105414	0	-0.00883397	0.132688	0.0851554	1.37604	2.67549e-06	3.91232e-06	1.92946e-06	2.45904e-06	1.15053e-06	1.78491e-06	0.149809	0.117067	0.415377	7.28012e-06	9.30818e-06	2.85403e-06	9.30175e-06	1.5966e-06	1.48699e-06	2.21044	0.0994049	2.21267	2.5749	1.76991e+07	3.93569e+08	3.93967e+08	-87.4251	0.0000000E+000	0.0000000E+000	0.0000000E+000	87.4251	0.0000000E+000	0.0000000E+000	0.0000000E+000	-87.4251	0.0000000E+000	0.0000000E+000	0.0000000E+000	-2.5749	0.0000000E+000	0.0000000E+000	0.0000000E+000	2.5749	22.2367	87.4251	-0.000926898
0.281811	0.465713	0.0203406	0.466157	-2.50087	323.324	-0.000110662	-0.231917	2.77651e+07	52864	1	38	0.00476169	0.0102148	0	-0.0166028	0.102459	0.109515	0.800454	1.34721e-06	3.31796e-06	1.25639e-06	2.08234e-06	8.83218e-07	1.67476e-06	0.139458	0.0851882	0.383806	4.78021e-06	1.02966e-05	2.03238e-06	7.13526e-06	2.11297e-06	2.04122e-06	2.14316	0.0936047	2.1452	2.50087	5.28641e+07	1.21036e+09	1.21152e+09	-87.4991	0.0000000E+000	0.0000000E+000	0.0000000E+000	87.4991	0.0000000E+000	0.0000000E+000	0.0000000E+000	-87.4991	0.0000000E+000	0.0000000E+000	0.0000000E+000	-2.50087	0.0000000E+000	0.0000000E+000	0.0000000E+000	2.50087	22.8958	87.4991	-0.000427454
0.0888996	0.47526	0.015968	0.475528	-1.92432	757.645	-0.00013301	-0.248556	1.12117e+08	126420	1	38	0.00476261	0.0100154	0	-0.0503817	0.0913491	0.126533	0.440961	1.46396e-06	2.79211e-06	1.35361e-06	1.82828e-06	8.31875e-07	1.13102e-06	0.154378	0.110936	0.260769	6.36059e-06	1.04227e-05	2.58073e-06	8.06813e-06	2.545e-06	1.56053e-06	2.10174	0.0706149	2.10292	1.92432	1.2642e+08	3.76269e+09	3.76482e+09	-88.0757	0.0000000E+000	0.0000000E+000	0.0000000E+000	88.0757	0.0000000E+000	0.0000000E+000	0.0000000E+000	-88.0757	0.0000000E+000	0.0000000E+000	0.0000000E+000	-1.92432	0.0000000E+000	0.0000000E+000	0.0000000E+000	1.92432	29.7634	88.0757	-0.00414476
0.0280409	0.478818	0.0139446	0.479021	-1.66815	2128.18	-0.000114381	-0.265813	4.07026e+08	344926	1	38	0.00476336	0.00994394	0	-0.125845	0.111523	0.142315	0.287852	1.76858e-06	4.11978e-06	1.68089e-06	1.79362e-06	8.20937e-07	7.35481e-07	0.149111	0.229131	0.208157	5.41722e-06	9.80077e-06	4.74572e-06	5.8117e-06	1.69371e-06	4.14476e-06	2.08671	0.0607711	2.08759	1.66815	3.44926e+08	1.18438e+10	1.18488e+10	-88.3318	0.0000000E+000	0.0000000E+000	0.0000000E+000	88.3318	0.0000000E+000	0.0000000E+000	0.0000000E+000	-88.3318	0.0000000E+000	0.0000000E+000	0.0000000E+000	-1.66815	0.0000000E+000	0.0000000E+000	0.0000000E+000	1.66815	34.3371	88.3318	-0.00559514
0.0250094	0.479475	0.0134479	0.479663	-1.60656	2372.64	-0.000121732	-0.280311	4.73219e+08	371961	1	38	0.00475716	0.00991772	0	-0.138258	0.0997792	0.0960297	0.287075	1.84875e-06	3.04541e-06	7.57621e-07	1.94051e-06	1.26134e-06	1.33424e-06	0.140258	0.0930482	0.230092	3.53346e-06	7.62435e-06	3.05838e-06	8.75463e-06	3.06685e-06	2.67899e-06	2.08398	0.0584496	2.0848	1.60656	3.71961e+08	1.3262e+10	1.32672e+10	-88.3934	0.0000000E+000	0.0000000E+000	0.0000000E+000	88.3934	0.0000000E+000	0.0000000E+000	0.0000000E+000	-88.3934	0.0000000E+000	0.0000000E+000	0.0000000E+000	-1.60656	0.0000000E+000	0.0000000E+000	0.0000000E+000	1.60656	35.6543	88.3934	-0.0124134