File: Python/Experiments/IRFB/FirstCell/Data/240405-EIS-50mM_FeCl2FeCl3-1M_HCl-30mLmin-LowFreq_6ppd_C15.mpt
EC-Lab ASCII FILE
Nb header lines : 66

Potentio Electrochemical Impedance Spectroscopy

Run on channel : 15 (SN 19485)
User :
Electrode connection : standard
Potential control : Ewe
Ewe ctrl range : min = -1.00 V, max = 1.00 V
Ewe,I filtering : <None>
Safety Limits :
	Do not start on E overload
Channel : Floating
Acquisition started on : 04/05/2024 12:36:46.312
Loaded Setting File :  NONE
Saved on :
	File : 240405-EIS-50mM_FeCl2FeCl3-1M_HCl-30mLmin-LowFreq_6ppd_C15.mpr
	Directory : C:\Data\mathias\IRFB\
	Host : 192.168.0.1
Device : VMP-300 (SN 0826)
Address : USB
EC-Lab for windows v11.52 (software)
Internet server v11.52 (firmware)
Command interpretor v11.52 (firmware)
Electrode material :
Initial state :
Electrolyte :
Comments :
Cable : special
Electrode surface area : 0.001 cm²
Characteristic mass : 0.001 g
Equivalent Weight : 0.000 g/eq.
Density : 0.000 g/cm3
Volume (V) : 0.001 cm³
Record EIS quality indicators
Cycle Definition : Charge/Discharge alternance
Mode                Single sine
E (V)               0.0000
vs.                 Eoc
tE (h:m:s)          0:00:0.0000
record              0
dI                  0.000
unit dI             mA
dt (s)              0.000
fi                  920.000
unit fi             kHz
ff                  25.000
unit ff             mHz
Nd                  6
Points              per decade
spacing             Logarithmic
Va (mV)             5.0
pw                  0.10
Na                  3
corr                0
E range min (V)     -1.000
E range max (V)     1.000
I Range             Auto
Bandwidth           8
nc cycles           2
goto Ns'            0
nr cycles           0
inc. cycle          0

freq/Hz	Re(Z)/Ohm	-Im(Z)/Ohm	|Z|/Ohm	Phase(Z)/deg	time/s	<Ewe>/V	<I>/mA	Cs/µF	Cp/µF	cycle number	I Range	|Ewe|/V	|I|/A	Ns	(Q-Qo)/mA.h	THD Ewe/%	NSD Ewe/%	NSR Ewe/%	|Ewe h2|/V	|Ewe h3|/V	|Ewe h4|/V	|Ewe h5|/V	|Ewe h6|/V	|Ewe h7|/V	THD I/%	NSD I/%	NSR I/%	|I h2|/A	|I h3|/A	|I h4|/A	|I h5|/A	|I h6|/A	|I h7|/A	Re(Y)/Ohm-1	Im(Y)/Ohm-1	|Y|/Ohm-1	Phase(Y)/deg	Re(C)/nF	Im(C)/nF	|C|/nF	Phase(C)/deg	Re(M)	Im(M)	|M|	Phase(M)/deg	Re(Permittivity)	Im(Permittivity)	|Permittivity|	Phase(Permittivity)/deg	Re(Resistivity)/Ohm.cm	Im(Resistivity)/Ohm.cm	|Resistivity|/Ohm.cm	Phase(Resistivity)/deg	Re(Conductivity)/mS/cm	Im(Conductivity)/mS/cm	|Conductivity|/mS/cm	Phase(Conductivity)/deg	Tan(Delta)	Loss Angle(Delta)/deg	dq/mA.h
920001	-0.121266	-0.286685	0.311278	112.928	1.82249	-0.000105091	-0.619051	-0.60343	-0.511847	1	37	0.000907285	0.00291471	0	-0.000284302	-1	-1	-1	0	0	0	0	0	0	-1	-1	-1	0	0	0	0	0	0	-1.25154	-2.95875	3.21256	-112.928	-511.847	-216.509	555.755	157.072	0.0000000E+000	0.0000000E+000	0.0000000E+000	-157.072	0.0000000E+000	0.0000000E+000	0.0000000E+000	157.072	0.0000000E+000	0.0000000E+000	0.0000000E+000	112.928	0.0000000E+000	0.0000000E+000	0.0000000E+000	-112.928	0.422995	22.9281	-0.000284302
28225.2	0.0592998	0.00333925	0.0593937	-3.223	12.1545	-0.000113181	-0.610599	1688.63	5.33765	1	37	0.00538844	0.090724	0	-0.00214327	0.406545	0.313378	6.9757	8.36465e-06	1.44094e-05	5.97737e-06	6.29176e-06	6.90558e-06	4.71961e-06	0.211572	0.0288696	0.255983	3.56041e-05	0.00018837	3.49299e-06	9.12505e-06	2.21703e-06	1.78575e-06	16.8102	0.946602	16.8368	3.223	5337.66	94788.3	94938.5	-86.777	0.0000000E+000	0.0000000E+000	0.0000000E+000	86.777	0.0000000E+000	0.0000000E+000	0.0000000E+000	-86.777	0.0000000E+000	0.0000000E+000	0.0000000E+000	-3.223	0.0000000E+000	0.0000000E+000	0.0000000E+000	3.223	17.7584	86.777	-0.000304022
865.832	0.0994791	0.0331087	0.104844	-18.4085	23.5386	-0.000228977	-1.10242	5551.93	553.658	1	37	0.00532114	0.0507529	0	-0.00503939	0.308003	0.196852	6.90269	4.96328e-06	6.94043e-06	9.96036e-06	6.67495e-06	5.04734e-06	3.1938e-06	0.050052	0.0332608	0.45816	1.58525e-05	1.5512e-05	3.75069e-06	9.26595e-06	5.44345e-06	2.90534e-06	9.04991	3.012	9.53798	18.4085	553658	1.66353e+06	1.75325e+06	-71.5915	0.0000000E+000	0.0000000E+000	0.0000000E+000	71.5915	0.0000000E+000	0.0000000E+000	0.0000000E+000	-71.5915	0.0000000E+000	0.0000000E+000	0.0000000E+000	-18.4085	0.0000000E+000	0.0000000E+000	0.0000000E+000	18.4085	3.00462	71.5915	-0.000368553
26.5551	0.204229	0.0276855	0.206097	-7.72002	33.9481	-0.000209815	-1.06488	216481	3906.45	1	37	0.00495511	0.0240426	0	-0.00812038	0.376905	0.264455	7.53338	9.56607e-06	6.9318e-06	4.89253e-06	8.23947e-06	6.61032e-06	4.89892e-06	0.231747	0.0383103	0.970597	4.50935e-05	2.21957e-05	8.00105e-06	1.81133e-05	9.89188e-06	4.14968e-06	4.80811	0.651793	4.85209	7.72002	3.90645e+06	2.88169e+07	2.90805e+07	-82.28	0.0000000E+000	0.0000000E+000	0.0000000E+000	82.28	0.0000000E+000	0.0000000E+000	0.0000000E+000	-82.28	0.0000000E+000	0.0000000E+000	0.0000000E+000	-7.72002	0.0000000E+000	0.0000000E+000	0.0000000E+000	7.72002	7.37675	82.28	-0.000362719
0.814483	0.219443	0.00859001	0.219611	-2.24168	63.1299	-0.000191659	-0.990615	2.27481e+07	34803.5	1	38	0.00493514	0.0224722	0	-0.015493	0.108467	0.0678791	1.38821	2.92003e-06	3.03986e-06	1.1675e-06	1.06644e-06	1.84027e-06	1.52586e-06	0.127441	0.0582225	0.595178	1.2006e-05	1.72006e-05	5.75371e-06	1.64682e-05	4.72762e-06	5.17089e-06	4.55002	0.178109	4.5535	2.24168	3.48035e+07	8.89102e+08	8.89782e+08	-87.7583	0.0000000E+000	0.0000000E+000	0.0000000E+000	87.7583	0.0000000E+000	0.0000000E+000	0.0000000E+000	-87.7583	0.0000000E+000	0.0000000E+000	0.0000000E+000	-2.24168	0.0000000E+000	0.0000000E+000	0.0000000E+000	2.24168	25.5463	87.7583	-0.000851476
0.0250094	0.248364	0.00148193	0.248369	-0.341867	803.493	-0.000196735	-1.00585	4.29425e+09	152880	1	38	0.00492804	0.0198416	0	-0.252413	0.101889	0.11088	0.288471	2.16754e-06	3.52729e-06	1.19108e-06	2.11012e-06	8.58259e-07	6.1518e-07	0.216336	0.207955	0.287702	2.0591e-05	2.45002e-05	1.99136e-05	8.40266e-06	7.01884e-06	6.19922e-06	4.0262	0.0240235	4.02627	0.341867	1.5288e+08	2.56219e+10	2.56224e+10	-89.6581	0.0000000E+000	0.0000000E+000	0.0000000E+000	89.6581	0.0000000E+000	0.0000000E+000	0.0000000E+000	-89.6581	0.0000000E+000	0.0000000E+000	0.0000000E+000	-0.341867	0.0000000E+000	0.0000000E+000	0.0000000E+000	0.341867	167.595	89.6581	-0.075822
41586.2	0.0577119	-0.000709905	0.0577163	0.704751	814.277	-9.62368e-05	-0.646761	-5391.01	-0.815594	2	37	0.00538939	0.0933774	0	-0.254707	0.395464	0.185958	6.8205	1.14703e-05	9.86608e-06	6.68173e-06	6.36023e-06	5.78721e-06	8.55885e-06	0.19822	0.0485727	0.254165	3.51825e-06	0.000184551	2.79063e-06	1.15718e-05	3.4575e-06	4.9622e-06	17.3248	-0.21311	17.3261	-0.704751	-815.594	66303.9	66309	-90.7048	0.0000000E+000	0.0000000E+000	0.0000000E+000	90.7048	0.0000000E+000	0.0000000E+000	0.0000000E+000	-90.7048	0.0000000E+000	0.0000000E+000	0.0000000E+000	0.704751	0.0000000E+000	0.0000000E+000	0.0000000E+000	-0.704751	81.2953	89.2952	-0.000127029
1275.41	0.0916944	0.0294728	0.0963146	-17.8187	825.479	-0.000231941	-0.974432	4234	396.469	2	37	0.00537992	0.0558577	0	-0.257829	0.353808	0.124404	6.76548	5.43421e-06	8.90726e-06	7.58287e-06	6.53098e-06	5.29118e-06	9.54419e-06	0.0603311	0.0679362	0.422391	1.48922e-05	2.84734e-05	3.08854e-06	7.11029e-06	2.25026e-06	3.12796e-06	9.88458	3.17714	10.3826	17.8187	396469	1.23347e+06	1.29563e+06	-72.1813	0.0000000E+000	0.0000000E+000	0.0000000E+000	72.1813	0.0000000E+000	0.0000000E+000	0.0000000E+000	-72.1813	0.0000000E+000	0.0000000E+000	0.0000000E+000	-17.8187	0.0000000E+000	0.0000000E+000	0.0000000E+000	17.8187	3.11115	72.1813	-0.000531458
39.1114	0.196736	0.0346975	0.199772	-10.0022	836.14	-0.000202321	-0.975457	117279	3537.91	2	37	0.00496212	0.0248389	0	-0.26072	0.35941	0.222727	7.54914	4.77485e-06	8.07737e-06	1.94337e-06	9.78731e-06	8.54708e-06	2.36289e-06	0.191506	0.0586951	0.94025	7.67777e-06	2.87282e-05	2.28189e-05	2.7485e-05	4.44759e-06	4.93983e-06	4.92963	0.86942	5.00571	10.0022	3.53791e+06	2.006e+07	2.03696e+07	-79.9978	0.0000000E+000	0.0000000E+000	0.0000000E+000	79.9978	0.0000000E+000	0.0000000E+000	0.0000000E+000	-79.9978	0.0000000E+000	0.0000000E+000	0.0000000E+000	-10.0022	0.0000000E+000	0.0000000E+000	0.0000000E+000	10.0022	5.67002	79.9978	-0.000346888
1.20008	0.219197	0.00727908	0.219318	-1.90197	856.063	-0.000188834	-0.940612	1.82194e+07	20069.5	2	37	0.00493661	0.0225089	0	-0.26557	0.138731	0.0934338	1.75219	2.70327e-06	3.51425e-06	2.39188e-06	2.87217e-06	2.26056e-06	1.33609e-06	0.147909	0.0619073	0.653906	8.57465e-06	2.59266e-05	6.03021e-06	1.51696e-05	6.98292e-06	3.24607e-06	4.55707	0.151331	4.55959	1.90197	2.00695e+07	6.0436e+08	6.04694e+08	-88.098	0.0000000E+000	0.0000000E+000	0.0000000E+000	88.098	0.0000000E+000	0.0000000E+000	0.0000000E+000	-88.098	0.0000000E+000	0.0000000E+000	0.0000000E+000	-1.90197	0.0000000E+000	0.0000000E+000	0.0000000E+000	1.90197	30.1133	88.098	-0.000419627
0.0368053	0.248859	0.00809002	0.248991	-1.86194	1362.3	-0.000210856	-0.984965	5.34516e+08	564279	2	38	0.00492858	0.0197942	0	-0.385222	0.107497	0.100449	0.321051	1.72313e-06	3.81595e-06	1.38433e-06	2.29124e-06	9.88567e-07	9.65458e-07	0.167077	0.207417	0.28604	1.79461e-05	1.71062e-05	9.74823e-06	1.60014e-05	4.08254e-06	4.44365e-06	4.01409	0.130492	4.01622	1.86194	5.64278e+08	1.73579e+10	1.73671e+10	-88.1381	0.0000000E+000	0.0000000E+000	0.0000000E+000	88.1381	0.0000000E+000	0.0000000E+000	0.0000000E+000	-88.1381	0.0000000E+000	0.0000000E+000	0.0000000E+000	-1.86194	0.0000000E+000	0.0000000E+000	0.0000000E+000	1.86194	30.7613	88.1381	-0.0394171
61219.6	0.0566255	-0.00544389	0.0568866	5.49145	1616.4	-0.000124384	-0.46303	-477.552	-4.3734	3	37	0.00540371	0.094991	0	-0.463462	0.390616	0.196415	6.88834	5.26331e-06	1.23907e-05	7.71616e-06	6.40949e-06	6.78807e-06	8.3679e-06	0.186757	0.0128116	0.241037	1.80404e-06	0.000176637	9.56577e-06	6.54732e-06	5.00105e-06	5.74592e-06	17.4982	-1.68225	17.5788	-5.49145	-4373.4	45490.7	45700.4	-95.4915	0.0000000E+000	0.0000000E+000	0.0000000E+000	95.4915	0.0000000E+000	0.0000000E+000	0.0000000E+000	-95.4915	0.0000000E+000	0.0000000E+000	0.0000000E+000	5.49145	0.0000000E+000	0.0000000E+000	0.0000000E+000	-5.49145	10.4017	84.5085	-0.000121633
1878.19	0.0850892	0.0257062	0.0888875	-16.81	1627.42	-0.000249501	-1.03339	3296.41	275.7	3	37	0.00538942	0.060632	0	-0.465764	0.322884	0.172062	6.88792	7.52495e-06	6.26176e-06	4.29266e-06	7.32889e-06	7.81659e-06	6.87932e-06	0.0910871	0.0658736	0.389251	1.64865e-05	5.15582e-05	5.69422e-06	4.46916e-06	4.53047e-06	5.42829e-06	10.7694	3.25354	11.2502	16.81	275700	912584	953321	-73.19	0.0000000E+000	0.0000000E+000	0.0000000E+000	73.19	0.0000000E+000	0.0000000E+000	0.0000000E+000	-73.19	0.0000000E+000	0.0000000E+000	0.0000000E+000	-16.81	0.0000000E+000	0.0000000E+000	0.0000000E+000	16.81	3.31007	73.19	-0.000554512
57.6214	0.186236	0.041983	0.19091	-12.7037	1638.3	-0.000213561	-1.02215	65790.5	3181.66	3	37	0.00499493	0.0261638	0	-0.469007	0.396454	0.209862	7.39083	4.62507e-06	8.68442e-06	7.62302e-06	6.25832e-06	8.91592e-06	8.88396e-06	0.156356	0.146115	0.88497	3.36402e-06	2.83918e-05	4.76245e-06	2.73575e-05	4.8786e-06	5.36834e-06	5.10985	1.1519	5.23808	12.7037	3.18166e+06	1.41138e+07	1.4468e+07	-77.2963	0.0000000E+000	0.0000000E+000	0.0000000E+000	77.2963	0.0000000E+000	0.0000000E+000	0.0000000E+000	-77.2963	0.0000000E+000	0.0000000E+000	0.0000000E+000	-12.7037	0.0000000E+000	0.0000000E+000	0.0000000E+000	12.7037	4.436	77.2963	-0.000337598
1.76753	0.218836	0.00673816	0.218939	-1.76363	1653.89	-0.000212683	-1.01544	1.33632e+07	12657.4	3	37	0.00493466	0.0225389	0	-0.474046	0.150813	0.128758	2.20108	3.87199e-06	3.90445e-06	2.78544e-06	3.03533e-06	1.40803e-06	1.54626e-06	0.113132	0.0655238	0.679822	7.71839e-06	2.14445e-05	2.76696e-06	9.50138e-06	3.413e-06	1.97776e-06	4.56531	0.14057	4.56747	1.76363	1.26574e+07	4.11077e+08	4.11272e+08	-88.2364	0.0000000E+000	0.0000000E+000	0.0000000E+000	88.2364	0.0000000E+000	0.0000000E+000	0.0000000E+000	-88.2364	0.0000000E+000	0.0000000E+000	0.0000000E+000	-1.76363	0.0000000E+000	0.0000000E+000	0.0000000E+000	1.76363	32.4771	88.2364	-0.00169149
0.0541959	0.242912	0.00817021	0.243049	-1.92639	1999.36	-0.000193528	-0.934671	3.59435e+08	406161	3	38	0.00492923	0.0202808	0	-0.564172	0.121804	0.132983	0.379399	3.84506e-06	3.57545e-06	1.18717e-06	2.07522e-06	3.51354e-07	5.48024e-07	0.125794	0.251698	0.353602	1.30631e-05	1.16153e-05	3.38408e-06	1.58257e-05	3.10481e-06	2.63618e-06	4.11207	0.138307	4.11439	1.92639	4.06161e+08	1.20757e+10	1.20826e+10	-88.0736	0.0000000E+000	0.0000000E+000	0.0000000E+000	88.0736	0.0000000E+000	0.0000000E+000	0.0000000E+000	-88.0736	0.0000000E+000	0.0000000E+000	0.0000000E+000	-1.92639	0.0000000E+000	0.0000000E+000	0.0000000E+000	1.92639	29.7314	88.0736	-0.019209
0.0250094	0.249623	0.00146234	0.249627	-0.335647	2410.03	-0.000191953	-0.945623	4.35178e+09	149342	3	38	0.00492948	0.0197474	0	-0.651174	0.106534	0.104636	0.297528	2.18858e-06	4.05484e-06	8.36311e-07	1.53668e-06	4.89184e-07	7.8973e-07	0.191693	0.28539	0.285078	2.22721e-05	1.62977e-05	1.02725e-05	1.91302e-05	7.93715e-06	4.32626e-06	4.00591	0.0234675	4.00598	0.335647	1.49342e+08	2.54928e+10	2.54932e+10	-89.6644	0.0000000E+000	0.0000000E+000	0.0000000E+000	89.6644	0.0000000E+000	0.0000000E+000	0.0000000E+000	-89.6644	0.0000000E+000	0.0000000E+000	0.0000000E+000	-0.335647	0.0000000E+000	0.0000000E+000	0.0000000E+000	0.335647	170.7	89.6644	-0.0560832