File: Python/Experiments/IRFB/FirstCell/Data/240405-EIS-50mM_FeCl2FeCl3-1M_HCl-30mLmin-LowFreq_Fast_C15.mpt
EC-Lab ASCII FILE
Nb header lines : 66

Potentio Electrochemical Impedance Spectroscopy

Run on channel : 15 (SN 19485)
User :
Electrode connection : standard
Potential control : Ewe
Ewe ctrl range : min = -1.00 V, max = 1.00 V
Ewe,I filtering : <None>
Safety Limits :
	Do not start on E overload
Channel : Floating
Acquisition started on : 04/05/2024 10:49:41.181
Loaded Setting File :  NONE
Saved on :
	File : 240405-EIS-50mM_FeCl2FeCl3-1M_HCl-30mLmin-LowFreq_Fast_C15.mpr
	Directory : C:\Data\mathias\IRFB\
	Host : 192.168.0.1
Device : VMP-300 (SN 0826)
Address : USB
EC-Lab for windows v11.52 (software)
Internet server v11.52 (firmware)
Command interpretor v11.52 (firmware)
Electrode material :
Initial state :
Electrolyte :
Comments :
Cable : special
Electrode surface area : 0.001 cm²
Characteristic mass : 0.001 g
Equivalent Weight : 0.000 g/eq.
Density : 0.000 g/cm3
Volume (V) : 0.001 cm³
Record EIS quality indicators
Cycle Definition : Charge/Discharge alternance
Mode                Single sine
E (V)               0.0000
vs.                 Eoc
tE (h:m:s)          0:00:0.0000
record              0
dI                  0.000
unit dI             mA
dt (s)              0.000
fi                  920.000
unit fi             kHz
ff                  10.000
unit ff             mHz
Nd                  5
Points              per decade
spacing             Logarithmic
Va (mV)             5.0
pw                  0.10
Na                  2
corr                0
E range min (V)     -1.000
E range max (V)     1.000
I Range             Auto
Bandwidth           8
nc cycles           0
goto Ns'            0
nr cycles           999
inc. cycle          1

freq/Hz	Re(Z)/Ohm	-Im(Z)/Ohm	|Z|/Ohm	Phase(Z)/deg	time/s	<Ewe>/V	<I>/mA	Cs/µF	Cp/µF	cycle number	I Range	|Ewe|/V	|I|/A	Ns	(Q-Qo)/mA.h	THD Ewe/%	NSD Ewe/%	NSR Ewe/%	|Ewe h2|/V	|Ewe h3|/V	|Ewe h4|/V	|Ewe h5|/V	|Ewe h6|/V	|Ewe h7|/V	THD I/%	NSD I/%	NSR I/%	|I h2|/A	|I h3|/A	|I h4|/A	|I h5|/A	|I h6|/A	|I h7|/A	Re(Y)/Ohm-1	Im(Y)/Ohm-1	|Y|/Ohm-1	Phase(Y)/deg	Re(C)/nF	Im(C)/nF	|C|/nF	Phase(C)/deg	Re(M)	Im(M)	|M|	Phase(M)/deg	Re(Permittivity)	Im(Permittivity)	|Permittivity|	Phase(Permittivity)/deg	Re(Resistivity)/Ohm.cm	Im(Resistivity)/Ohm.cm	|Resistivity|/Ohm.cm	Phase(Resistivity)/deg	Re(Conductivity)/mS/cm	Im(Conductivity)/mS/cm	|Conductivity|/mS/cm	Phase(Conductivity)/deg	Tan(Delta)	Loss Angle(Delta)/deg	dq/mA.h
920001	-0.122448	-0.285653	0.310791	113.203	1.6255	-9.17818e-05	-0.55689	-0.60561	-0.511604	1	37	0.000904529	0.00291041	0	-0.000224908	-1	-1	-1	0	0	0	0	0	0	-1	-1	-1	0	0	0	0	0	0	-1.26769	-2.95734	3.2176	-113.203	-511.604	-219.304	556.626	156.797	0.0000000E+000	0.0000000E+000	0.0000000E+000	-156.797	0.0000000E+000	0.0000000E+000	0.0000000E+000	156.797	0.0000000E+000	0.0000000E+000	0.0000000E+000	113.203	0.0000000E+000	0.0000000E+000	0.0000000E+000	-113.203	0.428659	23.2028	-0.000224908
92961.3	0.0559976	-0.0116593	0.0571985	11.7615	5.69848	-0.000107869	-0.574512	-146.841	-6.10127	1	37	0.00521282	0.0911356	0	-0.000840212	0.342019	0.120771	6.96157	2.21627e-06	1.17983e-05	4.68693e-06	6.8815e-06	5.83894e-06	6.31445e-06	0.139865	0.0151276	0.253343	1.76724e-05	0.000125716	4.17436e-06	5.31084e-06	4.73636e-06	1.09411e-06	17.1159	-3.56371	17.483	-11.7615	-6101.27	29303.4	29931.8	-101.762	0.0000000E+000	0.0000000E+000	0.0000000E+000	101.762	0.0000000E+000	0.0000000E+000	0.0000000E+000	-101.762	0.0000000E+000	0.0000000E+000	0.0000000E+000	11.7615	0.0000000E+000	0.0000000E+000	0.0000000E+000	-11.7615	4.80284	78.2385	-0.000149167
9395.12	0.0668842	0.012513	0.0680446	-10.5966	9.91203	-0.000204949	-1.00581	1353.81	45.7816	1	37	0.00506706	0.0744667	0	-0.00169136	0.419749	0.1957	7.1077	9.14684e-06	7.36734e-06	6.63694e-06	6.36133e-06	1.38426e-05	4.97439e-06	0.197441	0.04866	0.317835	2.07362e-05	0.000143867	1.21072e-05	1.68635e-05	5.03009e-06	4.43305e-06	14.4456	2.70255	14.6962	10.5966	45781.6	244711	248957	-79.4034	0.0000000E+000	0.0000000E+000	0.0000000E+000	79.4034	0.0000000E+000	0.0000000E+000	0.0000000E+000	-79.4034	0.0000000E+000	0.0000000E+000	0.0000000E+000	-10.5966	0.0000000E+000	0.0000000E+000	0.0000000E+000	10.5966	5.34519	79.4034	-0.00037677
949.092	0.0984084	0.0323637	0.103594	-18.2045	14.7329	-0.000214363	-1.05454	5181.48	505.713	1	37	0.00539157	0.0520455	0	-0.00276636	0.369015	0.297463	6.67273	1.06356e-05	3.94608e-06	5.37194e-06	1.07635e-05	7.91633e-06	7.11069e-06	0.0542982	0.104038	0.449591	1.72865e-05	1.6664e-05	1.13775e-06	1.30257e-05	5.20766e-06	4.44145e-06	9.16995	3.01573	9.65311	18.2045	505713	1.53772e+06	1.61875e+06	-71.7955	0.0000000E+000	0.0000000E+000	0.0000000E+000	71.7955	0.0000000E+000	0.0000000E+000	0.0000000E+000	-71.7955	0.0000000E+000	0.0000000E+000	0.0000000E+000	-18.2045	0.0000000E+000	0.0000000E+000	0.0000000E+000	18.2045	3.04071	71.7955	-0.000124859
95.8897	0.167852	0.046602	0.174201	-15.5167	18.8919	-0.000184911	-1.00222	35615.8	2548.9	1	37	0.0050489	0.0289832	0	-0.00398483	0.353208	0.206777	7.2623	7.03686e-06	9.41965e-06	5.37419e-06	7.38836e-06	6.47968e-06	6.18829e-06	0.160501	0.0424445	0.820673	1.25477e-05	3.49737e-05	7.42493e-06	2.60508e-05	3.3212e-06	4.99327e-06	5.53128	1.53569	5.7405	15.5167	2.5489e+06	9.18065e+06	9.52792e+06	-74.4833	0.0000000E+000	0.0000000E+000	0.0000000E+000	74.4833	0.0000000E+000	0.0000000E+000	0.0000000E+000	-74.4833	0.0000000E+000	0.0000000E+000	0.0000000E+000	-15.5167	0.0000000E+000	0.0000000E+000	0.0000000E+000	15.5167	3.60181	74.4833	-0.000217147
9.69291	0.212414	0.0133627	0.212834	-3.59966	22.6241	-0.000183643	-0.983069	1.22877e+06	4843.71	1	37	0.00493661	0.0231946	0	-0.00491681	0.410893	0.21296	7.46739	8.48486e-06	5.74103e-06	8.31979e-06	6.99304e-06	9.97622e-06	8.18318e-06	0.305943	0.0987682	0.968887	1.08013e-05	1.73689e-05	6.44824e-06	6.36357e-05	1.4421e-05	1.27063e-05	4.68923	0.294993	4.6985	3.59966	4.84372e+06	7.69959e+07	7.71481e+07	-86.4003	0.0000000E+000	0.0000000E+000	0.0000000E+000	86.4003	0.0000000E+000	0.0000000E+000	0.0000000E+000	-86.4003	0.0000000E+000	0.0000000E+000	0.0000000E+000	-3.59966	0.0000000E+000	0.0000000E+000	0.0000000E+000	3.59966	15.8961	86.4003	-0.000199743
0.979744	0.217845	0.00763476	0.217978	-2.00721	36.2432	-0.000190376	-0.91432	2.12771e+07	26102.2	1	38	0.00493384	0.0226346	0	-0.00869846	0.113899	0.0717037	1.56013	2.33913e-06	2.55136e-06	2.00253e-06	3.11391e-06	1.84629e-06	1.30473e-06	0.105354	0.0625986	0.579949	2.19939e-06	1.748e-05	3.46638e-06	1.5291e-05	1.94487e-06	2.72153e-06	4.5848	0.160683	4.58761	2.00721	2.61022e+07	7.4478e+08	7.45237e+08	-87.9928	0.0000000E+000	0.0000000E+000	0.0000000E+000	87.9928	0.0000000E+000	0.0000000E+000	0.0000000E+000	-87.9928	0.0000000E+000	0.0000000E+000	0.0000000E+000	-2.00721	0.0000000E+000	0.0000000E+000	0.0000000E+000	2.00721	28.5333	87.9928	-0.0011528
0.0990003	0.240681	0.00839045	0.240827	-1.99659	138.655	-0.000189386	-1.02591	1.91601e+08	232572	1	38	0.00492993	0.0204708	0	-0.0408087	0.0894044	0.0569423	0.487606	1.28241e-06	3.64348e-06	8.00915e-07	1.62126e-06	3.81705e-07	8.30359e-07	0.147354	0.182961	0.414307	1.59449e-05	1.67086e-05	4.79125e-06	1.75897e-05	2.79803e-06	3.86448e-06	4.14983	0.144668	4.15235	1.99659	2.32572e+08	6.67135e+09	6.6754e+09	-88.0034	0.0000000E+000	0.0000000E+000	0.0000000E+000	88.0034	0.0000000E+000	0.0000000E+000	0.0000000E+000	-88.0034	0.0000000E+000	0.0000000E+000	0.0000000E+000	-1.99659	0.0000000E+000	0.0000000E+000	0.0000000E+000	1.99659	28.6851	88.0034	-0.00999507
0.0100037	0.242395	-0.00158866	0.2424	0.375512	1142.7	-0.000187975	-0.966905	-1.00144e+10	-430152	1	38	0.00492948	0.0203361	0	-0.304267	0.108825	0.109028	0.231674	3.79536e-06	3.01146e-06	5.33624e-07	1.59994e-06	1.00107e-06	9.68964e-07	0.212281	0.189988	0.303647	2.95476e-05	1.38339e-05	1.27605e-05	1.60859e-05	1.44426e-05	9.7316e-06	4.12532	-0.0270374	4.12541	-0.375512	-4.30152e+08	6.5632e+10	6.56334e+10	-90.3755	0.0000000E+000	0.0000000E+000	0.0000000E+000	90.3755	0.0000000E+000	0.0000000E+000	0.0000000E+000	-90.3755	0.0000000E+000	0.0000000E+000	0.0000000E+000	0.375512	0.0000000E+000	0.0000000E+000	0.0000000E+000	-0.375512	152.578	89.6245	-0.144994
147027	0.0537952	-0.0216468	0.0579871	21.9195	1147.31	-9.56403e-05	-0.557018	-50.0067	-6.96873	2	37	0.00374862	0.0646458	0	-0.000523189	-1	-1	-1	0	0	0	0	0	0	-1	-1	-1	0	0	0	0	0	0	15.9985	-6.43771	17.2452	-21.9195	-6968.73	17318.2	18667.7	-111.92	0.0000000E+000	0.0000000E+000	0.0000000E+000	111.92	0.0000000E+000	0.0000000E+000	0.0000000E+000	-111.92	0.0000000E+000	0.0000000E+000	0.0000000E+000	21.9195	0.0000000E+000	0.0000000E+000	0.0000000E+000	-21.9195	2.48513	68.0805	-0.000240305
14854.9	0.063246	0.00897396	0.0638795	-8.07578	1151.39	-0.000102332	-0.740394	1193.9	23.562	2	37	0.00545472	0.0853907	0	-0.00166673	0.361229	0.192896	6.80091	2.06656e-06	1.33766e-05	5.50221e-06	6.84265e-06	9.50093e-06	5.1604e-06	0.202412	0.0231188	0.269524	1.97194e-05	0.000171318	2.031e-06	1.05851e-05	1.93794e-06	2.87214e-06	15.4992	2.19918	15.6545	8.07578	23562	166059	167722	-81.9242	0.0000000E+000	0.0000000E+000	0.0000000E+000	81.9242	0.0000000E+000	0.0000000E+000	0.0000000E+000	-81.9242	0.0000000E+000	0.0000000E+000	0.0000000E+000	-8.07578	0.0000000E+000	0.0000000E+000	0.0000000E+000	8.07578	7.04773	81.9242	-0.000237196
1501.44	0.0891865	0.0280085	0.0934811	-17.4346	1156.42	-0.000207708	-1.17633	3784.62	339.746	2	37	0.00539831	0.0577476	0	-0.00332497	0.470423	0.140599	7.00379	1.29096e-05	1.53029e-05	4.5716e-06	8.74878e-06	8.1285e-06	8.01052e-06	0.0762132	0.0219932	0.402176	1.37367e-05	4.02845e-05	3.43331e-06	8.24951e-06	3.52497e-06	5.25443e-06	10.2059	3.20511	10.6974	17.4346	339746	1.08184e+06	1.13394e+06	-72.5654	0.0000000E+000	0.0000000E+000	0.0000000E+000	72.5654	0.0000000E+000	0.0000000E+000	0.0000000E+000	-72.5654	0.0000000E+000	0.0000000E+000	0.0000000E+000	-17.4346	0.0000000E+000	0.0000000E+000	0.0000000E+000	17.4346	3.18426	72.5654	-0.000381727
151.699	0.149728	0.0475582	0.1571	-17.6214	1160.8	-0.000175665	-1.02902	22060.3	2021.68	2	37	0.0051338	0.0326786	0	-0.00492024	0.292456	0.209183	7.32932	4.37791e-06	1.82241e-06	5.43426e-06	5.87857e-06	6.5192e-06	7.58838e-06	0.13805	0.13617	0.659059	4.13107e-06	3.46553e-05	1.25116e-05	2.49258e-05	1.91459e-06	1.62266e-06	6.0667	1.92697	6.36538	17.6214	2.02168e+06	6.36488e+06	6.67824e+06	-72.3786	0.0000000E+000	0.0000000E+000	0.0000000E+000	72.3786	0.0000000E+000	0.0000000E+000	0.0000000E+000	-72.3786	0.0000000E+000	0.0000000E+000	0.0000000E+000	-17.6214	0.0000000E+000	0.0000000E+000	0.0000000E+000	17.6214	3.14832	72.3786	-0.000254137
15.3287	0.20948	0.018384	0.210286	-5.01543	1164.53	-0.00017984	-0.979793	564774	4316.55	2	37	0.00494713	0.0235258	0	-0.00595645	0.465846	0.107245	7.47635	6.43508e-06	8.74365e-06	9.29175e-06	1.21272e-05	4.58159e-06	1.21763e-05	0.160721	0.0552364	1.00342	9.67483e-06	2.85465e-05	6.33058e-06	1.74175e-05	1.03428e-05	4.1799e-06	4.73723	0.41574	4.75544	5.01543	4.31655e+06	4.91858e+07	4.93749e+07	-84.9846	0.0000000E+000	0.0000000E+000	0.0000000E+000	84.9846	0.0000000E+000	0.0000000E+000	0.0000000E+000	-84.9846	0.0000000E+000	0.0000000E+000	0.0000000E+000	-5.01543	0.0000000E+000	0.0000000E+000	0.0000000E+000	5.01543	11.3947	84.9846	-0.000280098
1.54902	0.216773	0.00668056	0.216876	-1.7652	1172.39	-0.000185197	-0.932459	1.53798e+07	14593.3	2	37	0.00493419	0.0227512	0	-0.00812291	0.167656	0.0995812	1.99311	4.6692e-06	5.05038e-06	2.42785e-06	1.80739e-06	2.27358e-06	1.75465e-06	0.141233	0.077463	0.656451	1.03947e-05	2.61463e-05	8.76454e-06	1.15615e-05	3.1996e-06	3.78833e-06	4.60874	0.142033	4.61093	1.7652	1.45933e+07	4.73528e+08	4.73753e+08	-88.2348	0.0000000E+000	0.0000000E+000	0.0000000E+000	88.2348	0.0000000E+000	0.0000000E+000	0.0000000E+000	-88.2348	0.0000000E+000	0.0000000E+000	0.0000000E+000	-1.7652	0.0000000E+000	0.0000000E+000	0.0000000E+000	1.7652	32.4483	88.2348	-0.00153509
0.15652	0.236668	0.0116515	0.236954	-2.81849	1239.65	-0.000172554	-0.96297	8.72706e+07	211012	2	38	0.0049304	0.0208074	0	-0.0231563	0.087307	0.0649503	0.614958	2.10811e-06	2.57626e-06	4.88334e-07	1.69279e-06	1.15518e-06	1.38137e-06	0.118745	0.107378	0.508687	4.98646e-06	1.59894e-05	5.04951e-06	1.60876e-05	3.88265e-06	2.62813e-06	4.21512	0.207518	4.22023	2.81849	2.11012e+08	4.28609e+09	4.29128e+09	-87.1815	0.0000000E+000	0.0000000E+000	0.0000000E+000	87.1815	0.0000000E+000	0.0000000E+000	0.0000000E+000	-87.1815	0.0000000E+000	0.0000000E+000	0.0000000E+000	-2.81849	0.0000000E+000	0.0000000E+000	0.0000000E+000	2.81849	20.3121	87.1815	-0.00267259