File: Python/Experiments/IRFB/FirstCell/Data/240411-EIS-50mM_FeCl2FeCl3-1M_HCl-10mLmin-25mHz_20ppd_C15.mpt
EC-Lab ASCII FILE
Nb header lines : 66

Potentio Electrochemical Impedance Spectroscopy

Run on channel : 15 (SN 19485)
User :
Electrode connection : standard
Potential control : Ewe
Ewe ctrl range : min = -1.00 V, max = 1.00 V
Ewe,I filtering : <None>
Safety Limits :
	Do not start on E overload
Channel : Floating
Acquisition started on : 04/11/2024 10:45:14.386
Loaded Setting File :  NONE
Saved on :
	File : 240411-EIS-50mM_FeCl2FeCl3-1M_HCl-10mLmin-25mHz_20ppd_C15.mpr
	Directory : C:\Data\mathias\IRFB\
	Host : 192.168.0.1
Device : VMP-300 (SN 0826)
Address : USB
EC-Lab for windows v11.52 (software)
Internet server v11.52 (firmware)
Command interpretor v11.52 (firmware)
Electrode material :
Initial state :
Electrolyte :
Comments :
Cable : special
Electrode surface area : 0.001 cm²
Characteristic mass : 0.001 g
Equivalent Weight : 0.000 g/eq.
Density : 0.000 g/cm3
Volume (V) : 0.001 cm³
Record EIS quality indicators
Cycle Definition : Charge/Discharge alternance
Mode                Single sine
E (V)               0.0000
vs.                 Eoc
tE (h:m:s)          0:00:0.0000
record              0
dI                  0.000
unit dI             mA
dt (s)              0.000
fi                  920.000
unit fi             kHz
ff                  25.000
unit ff             mHz
Nd                  20
Points              per decade
spacing             Logarithmic
Va (mV)             5.0
pw                  0.10
Na                  3
corr                0
E range min (V)     -1.000
E range max (V)     1.000
I Range             Auto
Bandwidth           8
nc cycles           0
goto Ns'            0
nr cycles           0
inc. cycle          0

freq/Hz	Re(Z)/Ohm	-Im(Z)/Ohm	|Z|/Ohm	Phase(Z)/deg	time/s	<Ewe>/V	<I>/mA	Cs/µF	Cp/µF	cycle number	I Range	|Ewe|/V	|I|/A	Ns	(Q-Qo)/mA.h	THD Ewe/%	NSD Ewe/%	NSR Ewe/%	|Ewe h2|/V	|Ewe h3|/V	|Ewe h4|/V	|Ewe h5|/V	|Ewe h6|/V	|Ewe h7|/V	THD I/%	NSD I/%	NSR I/%	|I h2|/A	|I h3|/A	|I h4|/A	|I h5|/A	|I h6|/A	|I h7|/A	Re(Y)/Ohm-1	Im(Y)/Ohm-1	|Y|/Ohm-1	Phase(Y)/deg	Re(C)/nF	Im(C)/nF	|C|/nF	Phase(C)/deg	Re(M)	Im(M)	|M|	Phase(M)/deg	Re(Permittivity)	Im(Permittivity)	|Permittivity|	Phase(Permittivity)/deg	Re(Resistivity)/Ohm.cm	Im(Resistivity)/Ohm.cm	|Resistivity|/Ohm.cm	Phase(Resistivity)/deg	Re(Conductivity)/mS/cm	Im(Conductivity)/mS/cm	|Conductivity|/mS/cm	Phase(Conductivity)/deg	Tan(Delta)	Loss Angle(Delta)/deg	dq/mA.h
920001	-0.130512	-0.127293	0.18231	135.715	2.16849	4.88895e-06	-0.015134	-1.35902	-0.662546	1	37	0.000542034	0.00297314	0	-1.60386e-05	-1	-1	-1	0	0	0	0	0	0	-1	-1	-1	0	0	0	0	0	0	-3.92671	-3.82987	5.48516	-135.715	-662.546	-679.298	948.901	134.285	0.0000000E+000	0.0000000E+000	0.0000000E+000	-134.285	0.0000000E+000	0.0000000E+000	0.0000000E+000	134.285	0.0000000E+000	0.0000000E+000	0.0000000E+000	135.715	0.0000000E+000	0.0000000E+000	0.0000000E+000	-135.715	1.02529	45.7153	-1.60386e-05
290232	0.0513165	-0.00374742	0.0514532	4.17665	13.6395	-1.4777e-05	-0.0532865	-146.333	-0.776218	1	37	0.00115959	0.0225368	0	-8.33558e-05	-1	-1	-1	0	0	0	0	0	0	-1	-1	-1	0	0	0	0	0	0	19.3835	-1.41549	19.4351	-4.17665	-776.217	10629.4	10657.7	-94.1766	0.0000000E+000	0.0000000E+000	0.0000000E+000	94.1766	0.0000000E+000	0.0000000E+000	0.0000000E+000	-94.1766	0.0000000E+000	0.0000000E+000	0.0000000E+000	4.17665	0.0000000E+000	0.0000000E+000	0.0000000E+000	-4.17665	13.6938	85.8234	1.1292e-05
91560.3	0.0620698	0.00219647	0.0621086	-2.02669	24.8495	-4.20759e-06	-0.0417644	791.383	0.989772	1	37	0.00511687	0.0823858	0	-0.000285018	0.319064	0.235245	6.84164	4.79792e-06	9.79839e-06	5.40613e-06	6.16029e-06	4.22301e-06	5.24818e-06	0.128858	0.0221969	0.239063	2.57491e-05	0.000102431	7.21962e-06	6.77878e-06	1.08667e-06	2.43957e-06	16.0907	0.569406	16.1008	2.02669	989.771	27969.8	27987.3	-87.9733	0.0000000E+000	0.0000000E+000	0.0000000E+000	87.9733	0.0000000E+000	0.0000000E+000	0.0000000E+000	-87.9733	0.0000000E+000	0.0000000E+000	0.0000000E+000	-2.02669	0.0000000E+000	0.0000000E+000	0.0000000E+000	2.02669	28.2588	87.9733	9.30453e-05
28884	0.0662439	0.00828772	0.0667603	-7.13117	36.3305	-2.54857e-06	-0.0601898	664.857	10.2462	1	37	0.00508897	0.0762274	0	-0.000256615	0.372273	0.210104	6.76951	5.45716e-06	9.66374e-06	5.79669e-06	7.91009e-06	5.47653e-06	8.2323e-06	0.168479	0.046867	0.26022	3.39319e-05	0.000122904	6.29389e-06	1.19842e-05	5.51966e-06	3.2454e-06	14.8631	1.85951	14.979	7.13117	10246.2	81897.8	82536.2	-82.8688	0.0000000E+000	0.0000000E+000	0.0000000E+000	82.8688	0.0000000E+000	0.0000000E+000	0.0000000E+000	-82.8688	0.0000000E+000	0.0000000E+000	0.0000000E+000	-7.13117	0.0000000E+000	0.0000000E+000	0.0000000E+000	7.13117	7.99302	82.8688	9.69435e-05
9107.2	0.0743407	0.0155472	0.0759491	-11.8123	47.8155	-0.000126789	-0.382649	1124.04	47.1024	1	37	0.00518399	0.0682561	0	-0.000272565	0.353742	0.114708	6.74785	9.26642e-06	1.01942e-05	6.28303e-06	5.62499e-06	5.76745e-06	3.32102e-06	0.163102	0.018129	0.290081	1.05402e-05	0.000109507	5.22219e-06	1.3305e-05	6.95632e-06	4.74047e-06	12.8879	2.6953	13.1667	11.8123	47102.4	225225	230098	-78.1877	0.0000000E+000	0.0000000E+000	0.0000000E+000	78.1877	0.0000000E+000	0.0000000E+000	0.0000000E+000	-78.1877	0.0000000E+000	0.0000000E+000	0.0000000E+000	-11.8123	0.0000000E+000	0.0000000E+000	0.0000000E+000	11.8123	4.78161	78.1877	-0.000128057
2874.08	0.0877505	0.0250628	0.0912595	-15.9401	60.6338	-0.000141198	-0.347083	2209.48	166.646	1	37	0.00509261	0.0558036	0	-0.00160123	0.324521	0.160396	6.73896	7.8075e-06	8.14841e-06	3.93741e-06	7.39615e-06	4.26914e-06	6.46797e-06	0.0935781	0.0965002	0.364528	1.06485e-05	4.86724e-05	3.48294e-06	1.00522e-05	6.88487e-06	5.10124e-06	10.5364	3.00936	10.9578	15.9401	166646	583464	606796	-74.0599	0.0000000E+000	0.0000000E+000	0.0000000E+000	74.0599	0.0000000E+000	0.0000000E+000	0.0000000E+000	-74.0599	0.0000000E+000	0.0000000E+000	0.0000000E+000	-15.9401	0.0000000E+000	0.0000000E+000	0.0000000E+000	15.9401	3.50122	74.0599	-6.75735e-05
907.034	0.108789	0.0380637	0.115256	-19.2842	73.9183	-0.000126752	-0.331841	4609.83	502.785	1	37	0.00511804	0.0444059	0	-0.00277609	0.299198	0.167682	6.80038	4.81976e-06	4.37619e-06	7.96688e-06	5.93879e-06	4.61737e-06	6.40293e-06	0.0406744	0.0558069	0.451535	4.97652e-06	1.09078e-05	5.89509e-06	1.00551e-05	3.97291e-06	3.99006e-06	8.18954	2.8654	8.67635	19.2842	502785	1.437e+06	1.52242e+06	-70.7158	0.0000000E+000	0.0000000E+000	0.0000000E+000	70.7158	0.0000000E+000	0.0000000E+000	0.0000000E+000	-70.7158	0.0000000E+000	0.0000000E+000	0.0000000E+000	-19.2842	0.0000000E+000	0.0000000E+000	0.0000000E+000	19.2842	2.85808	70.7158	-0.000131172
286.007	0.138326	0.0569615	0.149595	-22.3815	85.6521	-0.000101232	-0.338169	9769.27	1416.42	1	37	0.00532475	0.0355944	0	-0.0038458	0.346464	0.202411	6.60131	5.35104e-06	9.21828e-06	8.61816e-06	5.26438e-06	6.48625e-06	7.57647e-06	0.0901051	0.0250364	0.562252	3.53337e-06	2.68612e-05	6.04538e-06	1.51396e-05	2.8877e-06	4.09814e-06	6.18115	2.54535	6.68472	22.3815	1.41642e+06	3.43964e+06	3.71986e+06	-67.6185	0.0000000E+000	0.0000000E+000	0.0000000E+000	67.6185	0.0000000E+000	0.0000000E+000	0.0000000E+000	-67.6185	0.0000000E+000	0.0000000E+000	0.0000000E+000	-22.3815	0.0000000E+000	0.0000000E+000	0.0000000E+000	22.3815	2.42841	67.6185	-0.000137795
90.2601	0.193095	0.0899159	0.213004	-24.9693	96.7202	-0.000106415	-0.321903	19610.5	3494.52	1	37	0.00507583	0.0238298	0	-0.00485434	0.375673	0.135139	6.88761	5.409e-06	7.83554e-06	4.88293e-06	8.87789e-06	8.2657e-06	7.78173e-06	0.179849	0.0287115	0.833099	5.90194e-06	2.8582e-05	6.61239e-06	2.91646e-05	4.22565e-06	6.55797e-06	4.25596	1.98181	4.69476	24.9693	3.49452e+06	7.5045e+06	8.27824e+06	-65.0307	0.0000000E+000	0.0000000E+000	0.0000000E+000	65.0307	0.0000000E+000	0.0000000E+000	0.0000000E+000	-65.0307	0.0000000E+000	0.0000000E+000	0.0000000E+000	-24.9693	0.0000000E+000	0.0000000E+000	0.0000000E+000	24.9693	2.14751	65.0307	-0.000130632
28.4608	0.285453	0.0887644	0.298935	-17.2736	107.753	-0.000106079	-0.319782	62999	5554.65	1	37	0.00494762	0.0165508	0	-0.0058911	0.286133	0.156574	7.02511	7.43486e-06	5.29644e-06	4.36344e-06	5.20635e-06	4.03164e-06	5.64544e-06	0.156338	0.0271527	1.19833	6.87098e-06	1.74077e-05	5.25233e-06	1.36351e-05	7.43547e-06	5.02825e-06	3.19433	0.993309	3.34521	17.2736	5.55465e+06	1.78629e+07	1.87066e+07	-72.7264	0.0000000E+000	0.0000000E+000	0.0000000E+000	72.7264	0.0000000E+000	0.0000000E+000	0.0000000E+000	-72.7264	0.0000000E+000	0.0000000E+000	0.0000000E+000	-17.2736	0.0000000E+000	0.0000000E+000	0.0000000E+000	17.2736	3.21585	72.7264	-0.000105144
8.97989	0.338061	0.0473366	0.341359	-7.97095	118.98	-0.000109518	-0.345586	374414	7199.85	1	37	0.00492553	0.0144292	0	-0.0069286	0.236601	0.122526	4.86899	4.08951e-06	6.24905e-06	4.71985e-06	2.60916e-06	4.93386e-06	2.98738e-06	0.1265	0.0283431	1.02353	4.37479e-06	1.07163e-05	2.50464e-06	1.13917e-05	5.85132e-06	2.26486e-06	2.90116	0.406232	2.92947	7.97095	7.19985e+06	5.14187e+07	5.19204e+07	-82.0291	0.0000000E+000	0.0000000E+000	0.0000000E+000	82.0291	0.0000000E+000	0.0000000E+000	0.0000000E+000	-82.0291	0.0000000E+000	0.0000000E+000	0.0000000E+000	-7.97095	0.0000000E+000	0.0000000E+000	0.0000000E+000	7.97095	7.14164	82.0291	-9.3969e-05
2.83369	0.353677	0.022066	0.354365	-3.57006	136.51	-0.000101192	-0.315597	2.54533e+06	9869.34	1	37	0.00492348	0.0138938	0	-0.00824907	0.147775	0.118917	2.57815	2.71621e-06	3.5504e-06	1.77039e-06	1.8962e-06	1.84003e-06	3.49863e-06	0.115251	0.085667	0.721801	4.59107e-06	1.02658e-05	3.00832e-06	9.6543e-06	3.41006e-06	2.38667e-06	2.81647	0.17572	2.82195	3.57006	9.86934e+06	1.58188e+08	1.58495e+08	-86.4299	0.0000000E+000	0.0000000E+000	0.0000000E+000	86.4299	0.0000000E+000	0.0000000E+000	0.0000000E+000	-86.4299	0.0000000E+000	0.0000000E+000	0.0000000E+000	-3.57006	0.0000000E+000	0.0000000E+000	0.0000000E+000	3.57006	16.0282	86.4299	-0.000248302
0.893876	0.359732	0.015323	0.360059	-2.43908	184.471	-8.7783e-05	-0.320425	1.16198e+07	21044.6	1	38	0.00492082	0.0136667	0	-0.0118017	0.122489	0.0847289	1.37144	2.32045e-06	3.28374e-06	2.18285e-06	2.00147e-06	1.99454e-06	1.97508e-06	0.136474	0.108014	0.446079	1.10714e-05	8.71976e-06	3.44754e-06	1.05805e-05	2.62793e-06	1.27163e-06	2.77481	0.118195	2.77733	2.43908	2.10446e+07	4.94056e+08	4.94504e+08	-87.5609	0.0000000E+000	0.0000000E+000	0.0000000E+000	87.5609	0.0000000E+000	0.0000000E+000	0.0000000E+000	-87.5609	0.0000000E+000	0.0000000E+000	0.0000000E+000	-2.43908	0.0000000E+000	0.0000000E+000	0.0000000E+000	2.43908	23.4766	87.5609	0.000600019
0.281811	0.365704	0.0228625	0.366418	-3.57727	323.695	-9.82042e-05	-0.332847	2.47024e+07	96168.3	1	38	0.00491988	0.0134269	0	-0.0255774	0.0940479	0.0674995	0.783387	1.55979e-06	3.19971e-06	1.85688e-06	1.51584e-06	1.09282e-06	8.21307e-07	0.184481	0.118178	0.424289	1.81063e-05	8.1359e-06	8.27688e-06	9.58857e-06	2.88874e-06	4.02563e-06	2.72381	0.170282	2.72912	3.57727	9.61682e+07	1.53829e+09	1.54129e+09	-86.4227	0.0000000E+000	0.0000000E+000	0.0000000E+000	86.4227	0.0000000E+000	0.0000000E+000	0.0000000E+000	-86.4227	0.0000000E+000	0.0000000E+000	0.0000000E+000	-3.57727	0.0000000E+000	0.0000000E+000	0.0000000E+000	3.57727	15.9958	86.4227	-0.000512256
0.0888996	0.399443	0.0425903	0.401707	-6.08613	758.017	-0.000110458	-0.363062	4.20348e+07	472512	1	38	0.00492	0.0122477	0	-0.0674767	0.101763	0.130095	0.449923	1.74954e-06	3.28522e-06	1.24754e-06	2.50358e-06	9.61303e-07	1.22048e-06	0.141857	0.118107	0.465055	6.00083e-06	9.85238e-06	2.75994e-06	1.09094e-05	2.69038e-06	5.20988e-06	2.47535	0.263932	2.48938	6.08613	4.72512e+08	4.43156e+09	4.45668e+09	-83.9139	0.0000000E+000	0.0000000E+000	0.0000000E+000	83.9139	0.0000000E+000	0.0000000E+000	0.0000000E+000	-83.9139	0.0000000E+000	0.0000000E+000	0.0000000E+000	-6.08613	0.0000000E+000	0.0000000E+000	0.0000000E+000	6.08613	9.37872	83.9139	-0.0112885
0.0280409	0.431694	0.0276279	0.432577	-3.66186	2128.55	-0.000114586	-0.332775	2.05438e+08	838010	1	38	0.00491996	0.0113736	0	-0.200046	0.103157	0.0765946	0.27739	2.77007e-06	3.14421e-06	9.50214e-07	1.9951e-06	1.01771e-06	6.99446e-07	0.135599	0.143334	0.517917	7.88362e-06	7.58774e-06	3.56837e-06	9.33149e-06	2.35167e-06	2.19315e-06	2.30701	0.147646	2.31173	3.66186	8.38011e+08	1.30942e+10	1.3121e+10	-86.3381	0.0000000E+000	0.0000000E+000	0.0000000E+000	86.3381	0.0000000E+000	0.0000000E+000	0.0000000E+000	-86.3381	0.0000000E+000	0.0000000E+000	0.0000000E+000	-3.66186	0.0000000E+000	0.0000000E+000	0.0000000E+000	3.66186	15.6253	86.3381	-0.01821
0.0250094	0.433134	0.0250115	0.433855	-3.3049	2373.01	-0.000106788	-0.318365	2.54435e+08	845602	1	38	0.00491711	0.0113335	0	-0.210839	0.0937468	0.0731711	0.28654	1.63344e-06	3.22399e-06	1.03531e-06	2.38331e-06	4.84415e-07	7.71263e-07	0.130747	0.137523	0.526277	2.74658e-06	8.92145e-06	3.34822e-06	1.00285e-05	2.18122e-06	1.41558e-06	2.30108	0.132877	2.30492	3.3049	8.45602e+08	1.46436e+10	1.4668e+10	-86.6951	0.0000000E+000	0.0000000E+000	0.0000000E+000	86.6951	0.0000000E+000	0.0000000E+000	0.0000000E+000	-86.6951	0.0000000E+000	0.0000000E+000	0.0000000E+000	-3.3049	0.0000000E+000	0.0000000E+000	0.0000000E+000	3.3049	17.3174	86.6951	-0.0107923