File: Python/Experiments/IRFB/FirstCell/Data/240405-EIS-50mM_FeCl2FeCl3-1M_HCl-30mLmin-LowFreq_Full_C15.mpt
EC-Lab ASCII FILE
Nb header lines : 66

Potentio Electrochemical Impedance Spectroscopy

Run on channel : 15 (SN 19485)
User :
Electrode connection : standard
Potential control : Ewe
Ewe ctrl range : min = -1.00 V, max = 1.00 V
Ewe,I filtering : <None>
Safety Limits :
	Do not start on E overload
Channel : Floating
Acquisition started on : 04/05/2024 11:11:59.743
Loaded Setting File :  NONE
Saved on :
	File : 240405-EIS-50mM_FeCl2FeCl3-1M_HCl-30mLmin-LowFreq_Full_C15.mpr
	Directory : C:\Data\mathias\IRFB\
	Host : 192.168.0.1
Device : VMP-300 (SN 0826)
Address : USB
EC-Lab for windows v11.52 (software)
Internet server v11.52 (firmware)
Command interpretor v11.52 (firmware)
Electrode material :
Initial state :
Electrolyte :
Comments :
Cable : special
Electrode surface area : 0.001 cm²
Characteristic mass : 0.001 g
Equivalent Weight : 0.000 g/eq.
Density : 0.000 g/cm3
Volume (V) : 0.001 cm³
Record EIS quality indicators
Cycle Definition : Charge/Discharge alternance
Mode                Single sine
E (V)               0.0000
vs.                 Eoc
tE (h:m:s)          0:00:0.0000
record              0
dI                  0.000
unit dI             mA
dt (s)              0.000
fi                  920.000
unit fi             kHz
ff                  25.000
unit ff             mHz
Nd                  10
Points              per decade
spacing             Logarithmic
Va (mV)             5.0
pw                  0.10
Na                  3
corr                0
E range min (V)     -1.000
E range max (V)     1.000
I Range             Auto
Bandwidth           8
nc cycles           2
goto Ns'            0
nr cycles           999
inc. cycle          1

freq/Hz	Re(Z)/Ohm	-Im(Z)/Ohm	|Z|/Ohm	Phase(Z)/deg	time/s	<Ewe>/V	<I>/mA	Cs/µF	Cp/µF	cycle number	I Range	|Ewe|/V	|I|/A	Ns	(Q-Qo)/mA.h	THD Ewe/%	NSD Ewe/%	NSR Ewe/%	|Ewe h2|/V	|Ewe h3|/V	|Ewe h4|/V	|Ewe h5|/V	|Ewe h6|/V	|Ewe h7|/V	THD I/%	NSD I/%	NSR I/%	|I h2|/A	|I h3|/A	|I h4|/A	|I h5|/A	|I h6|/A	|I h7|/A	Re(Y)/Ohm-1	Im(Y)/Ohm-1	|Y|/Ohm-1	Phase(Y)/deg	Re(C)/nF	Im(C)/nF	|C|/nF	Phase(C)/deg	Re(M)	Im(M)	|M|	Phase(M)/deg	Re(Permittivity)	Im(Permittivity)	|Permittivity|	Phase(Permittivity)/deg	Re(Resistivity)/Ohm.cm	Im(Resistivity)/Ohm.cm	|Resistivity|/Ohm.cm	Phase(Resistivity)/deg	Re(Conductivity)/mS/cm	Im(Conductivity)/mS/cm	|Conductivity|/mS/cm	Phase(Conductivity)/deg	Tan(Delta)	Loss Angle(Delta)/deg	dq/mA.h
920001	-0.120769	-0.286523	0.310935	112.855	1.97648	-0.000140937	-0.826958	-0.603772	-0.512687	1	37	0.00090544	0.00291199	0	-0.000421674	-1	-1	-1	0	0	0	0	0	0	-1	-1	-1	0	0	0	0	0	0	-1.24916	-2.96361	3.21611	-112.855	-512.687	-216.097	556.369	157.145	0.0000000E+000	0.0000000E+000	0.0000000E+000	-157.145	0.0000000E+000	0.0000000E+000	0.0000000E+000	157.145	0.0000000E+000	0.0000000E+000	0.0000000E+000	112.855	0.0000000E+000	0.0000000E+000	0.0000000E+000	-112.855	0.4215	22.8554	-0.000421674
9395.12	0.0664972	0.0125566	0.0676723	-10.6932	24.801	-0.000256472	-1.24318	1349.1	46.4481	1	37	0.00526831	0.0778503	0	-0.00567857	0.387236	0.135445	6.90263	7.77251e-06	5.92376e-06	4.70854e-06	4.65275e-06	1.47631e-05	6.05899e-06	0.199773	0.0501971	0.300193	1.92219e-05	0.000152926	9.26343e-06	1.5927e-05	5.21003e-06	2.87612e-06	14.5205	2.74189	14.7771	10.6932	46448.1	245979	250326	-79.3068	0.0000000E+000	0.0000000E+000	0.0000000E+000	79.3068	0.0000000E+000	0.0000000E+000	0.0000000E+000	-79.3068	0.0000000E+000	0.0000000E+000	0.0000000E+000	-10.6932	0.0000000E+000	0.0000000E+000	0.0000000E+000	10.6932	5.29579	79.3068	-0.000476097
95.8897	0.167331	0.0465641	0.173689	-15.5506	49.6119	-0.00025267	-1.3499	35644.8	2561.85	1	37	0.00504802	0.0290635	0	-0.0147717	0.365769	0.136754	7.33007	5.68388e-06	5.63284e-06	6.8673e-06	8.01952e-06	6.56566e-06	7.27302e-06	0.155071	0.026819	0.806527	4.96089e-06	3.34837e-05	5.19737e-06	2.82431e-05	4.89056e-06	4.25968e-06	5.54666	1.5435	5.75741	15.5506	2.56185e+06	9.20618e+06	9.55598e+06	-74.4494	0.0000000E+000	0.0000000E+000	0.0000000E+000	74.4494	0.0000000E+000	0.0000000E+000	0.0000000E+000	-74.4494	0.0000000E+000	0.0000000E+000	0.0000000E+000	-15.5506	0.0000000E+000	0.0000000E+000	0.0000000E+000	15.5506	3.59356	74.4494	-0.000378952
0.978641	0.217706	0.00766785	0.217841	-2.01719	93.9147	-0.000249402	-1.21568	2.12091e+07	26277.9	1	38	0.00493507	0.0226545	0	-0.0310439	0.120055	0.0646396	1.56123	2.17654e-06	3.07846e-06	1.23128e-06	2.59463e-06	2.31754e-06	1.46473e-06	0.117006	0.0468939	0.584591	5.18832e-06	1.81243e-05	5.27092e-06	1.73365e-05	3.26346e-06	1.48058e-06	4.58766	0.161582	4.5905	2.01719	2.62779e+07	7.46084e+08	7.46547e+08	-87.9828	0.0000000E+000	0.0000000E+000	0.0000000E+000	87.9828	0.0000000E+000	0.0000000E+000	0.0000000E+000	-87.9828	0.0000000E+000	0.0000000E+000	0.0000000E+000	-2.01719	0.0000000E+000	0.0000000E+000	0.0000000E+000	2.01719	28.3921	87.9828	-0.0041904
462524	0.0225244	-0.0791589	0.0823012	74.1165	1265.64	-0.000155104	-1.05986	-4.34696	-4.02137	2	37	0.000901932	0.0109589	0	-0.447098	-1	-1	-1	0	0	0	0	0	0	-1	-1	-1	0	0	0	0	0	0	3.32538	-11.6866	12.1505	-74.1165	-4021.37	1144.27	4181	-164.116	0.0000000E+000	0.0000000E+000	0.0000000E+000	164.116	0.0000000E+000	0.0000000E+000	0.0000000E+000	-164.116	0.0000000E+000	0.0000000E+000	0.0000000E+000	74.1165	0.0000000E+000	0.0000000E+000	0.0000000E+000	-74.1165	0.284547	15.8835	-0.000341806
4721.51	0.0730679	0.0178361	0.0752133	-13.7178	1288.82	-0.000262754	-1.18267	1889.9	106.28	2	37	0.00520077	0.0691469	0	-0.453421	0.331225	0.196609	7.14114	5.31832e-06	1.02455e-05	5.8544e-06	4.21072e-06	5.22337e-06	6.44716e-06	0.155335	0.0962712	0.347733	1.67768e-05	0.000104252	8.38073e-06	1.45918e-05	5.53838e-06	6.11923e-06	12.9163	3.1529	13.2955	13.7178	106280	435388	448172	-76.2822	0.0000000E+000	0.0000000E+000	0.0000000E+000	76.2822	0.0000000E+000	0.0000000E+000	0.0000000E+000	-76.2822	0.0000000E+000	0.0000000E+000	0.0000000E+000	-13.7178	0.0000000E+000	0.0000000E+000	0.0000000E+000	13.7178	4.09662	76.2822	-0.000496943
48.1956	0.190473	0.0377039	0.194168	-11.1969	1313.16	-0.00024156	-1.22289	87584.5	3302.49	2	37	0.00497196	0.0256064	0	-0.461861	0.430167	0.16276	7.38686	9.12919e-06	6.41861e-06	7.72584e-06	7.12948e-06	1.16393e-05	6.25705e-06	0.176553	0.149178	0.874214	9.47177e-06	2.9437e-05	8.53326e-06	2.97901e-05	6.97119e-06	5.87254e-06	5.05214	1.00007	5.15017	11.1969	3.30249e+06	1.66835e+07	1.70073e+07	-78.8031	0.0000000E+000	0.0000000E+000	0.0000000E+000	78.8031	0.0000000E+000	0.0000000E+000	0.0000000E+000	-78.8031	0.0000000E+000	0.0000000E+000	0.0000000E+000	-11.1969	0.0000000E+000	0.0000000E+000	0.0000000E+000	11.1969	5.05181	78.8031	-0.000366489
0.492188	0.221397	0.013256	0.221793	-3.42645	1385.22	-0.000240528	-1.20695	2.43937e+07	87137.1	2	38	0.00493125	0.0222335	0	-0.487767	0.133313	0.0970364	1.08513	2.55524e-06	4.23405e-06	2.29542e-06	2.87688e-06	1.39443e-06	7.60814e-07	0.157528	0.139634	0.594254	9.4633e-06	1.92502e-05	1.76412e-05	1.80393e-05	5.73134e-06	5.59643e-06	4.50064	0.269473	4.5087	3.42645	8.71371e+07	1.45534e+09	1.45794e+09	-86.5735	0.0000000E+000	0.0000000E+000	0.0000000E+000	86.5735	0.0000000E+000	0.0000000E+000	0.0000000E+000	-86.5735	0.0000000E+000	0.0000000E+000	0.0000000E+000	-3.42645	0.0000000E+000	0.0000000E+000	0.0000000E+000	3.42645	16.7017	86.5735	-0.0056807
232529	0.0493905	-0.0367392	0.0615564	36.6437	2529.31	-0.000147312	-0.889267	-18.6301	-6.63631	3	37	0.00202866	0.0329562	0	-0.88894	-1	-1	-1	0	0	0	0	0	0	-1	-1	-1	0	0	0	0	0	0	13.0346	-9.69579	16.2453	-36.6437	-6636.31	8921.57	11119.1	-126.644	0.0000000E+000	0.0000000E+000	0.0000000E+000	126.644	0.0000000E+000	0.0000000E+000	0.0000000E+000	-126.644	0.0000000E+000	0.0000000E+000	0.0000000E+000	36.6437	0.0000000E+000	0.0000000E+000	0.0000000E+000	-36.6437	1.34436	53.3563	-0.000286185
2374.24	0.0815479	0.0236088	0.0848966	-16.1462	2553.03	-0.000290137	-1.20717	2839.37	219.578	3	37	0.00517929	0.0610071	0	-0.89516	0.295711	0.325206	7.23471	7.4395e-06	4.96463e-06	4.81806e-06	6.4622e-06	4.23783e-06	6.74203e-06	0.101534	0.0248361	0.384924	1.56468e-05	5.9271e-05	2.68803e-06	4.81285e-06	3.33832e-06	3.98497e-06	11.3144	3.27562	11.779	16.1462	219578	758451	789597	-73.8538	0.0000000E+000	0.0000000E+000	0.0000000E+000	73.8538	0.0000000E+000	0.0000000E+000	0.0000000E+000	-73.8538	0.0000000E+000	0.0000000E+000	0.0000000E+000	-16.1462	0.0000000E+000	0.0000000E+000	0.0000000E+000	16.1462	3.45413	73.8538	-0.000465057
24.2323	0.204874	0.025413	0.206445	-7.07096	2576.74	-0.000242324	-1.20635	258445	3916.29	3	37	0.00495509	0.024002	0	-0.90294	0.323013	0.266546	7.56696	3.30538e-06	5.19434e-06	6.60179e-06	5.4793e-06	7.70575e-06	6.48041e-06	0.30146	0.0449564	0.944325	6.23075e-05	2.70504e-05	4.73549e-06	2.2216e-05	5.61321e-06	2.31013e-06	4.80708	0.596279	4.84392	7.07096	3.91628e+06	3.15723e+07	3.18142e+07	-82.929	0.0000000E+000	0.0000000E+000	0.0000000E+000	82.929	0.0000000E+000	0.0000000E+000	0.0000000E+000	-82.929	0.0000000E+000	0.0000000E+000	0.0000000E+000	-7.07096	0.0000000E+000	0.0000000E+000	0.0000000E+000	7.07096	8.06179	82.929	-0.000389461
0.247537	0.232178	0.0144661	0.232628	-3.56526	2706.29	-0.000257699	-1.18955	4.44457e+07	171873	3	38	0.00493115	0.0211976	0	-0.949714	0.0972874	0.112986	0.808858	1.95623e-06	3.47983e-06	1.28008e-06	1.42351e-06	1.2695e-06	8.71469e-07	0.105152	0.0873751	0.581071	5.94042e-06	1.4183e-05	3.15066e-06	1.3783e-05	4.34102e-06	4.94452e-06	4.29039	0.267317	4.29871	3.56526	1.71873e+08	2.75853e+09	2.76388e+09	-86.4347	0.0000000E+000	0.0000000E+000	0.0000000E+000	86.4347	0.0000000E+000	0.0000000E+000	0.0000000E+000	-86.4347	0.0000000E+000	0.0000000E+000	0.0000000E+000	-3.56526	0.0000000E+000	0.0000000E+000	0.0000000E+000	3.56526	16.0498	86.4347	-0.0110298
116909	0.0545617	-0.0162513	0.0569306	16.5863	3792.95	-0.0001612	-0.483279	-83.7688	-6.82606	4	37	0.00502187	0.0882105	0	-0.00251362	-1	-1	-1	0	0	0	0	0	0	-1	-1	-1	0	0	0	0	0	0	16.8344	-5.01416	17.5653	-16.5863	-6826.06	22917.6	23912.6	-106.586	0.0000000E+000	0.0000000E+000	0.0000000E+000	106.586	0.0000000E+000	0.0000000E+000	0.0000000E+000	-106.586	0.0000000E+000	0.0000000E+000	0.0000000E+000	16.5863	0.0000000E+000	0.0000000E+000	0.0000000E+000	-16.5863	3.35737	73.4137	-0.000128447
1193.85	0.0928899	0.0299646	0.0976033	-17.8788	3817.35	-0.000301173	-1.25805	4448.99	419.324	4	37	0.00518716	0.0531453	0	-0.00880155	0.396028	0.210917	7.14244	7.44682e-06	7.34278e-06	9.41334e-06	7.66306e-06	4.86231e-06	9.10682e-06	0.0531982	0.0842236	0.445184	1.32334e-05	2.25456e-05	4.0453e-06	7.99053e-06	4.6697e-06	1.31724e-06	9.75078	3.14543	10.2456	17.8788	419324	1.2999e+06	1.36586e+06	-72.1212	0.0000000E+000	0.0000000E+000	0.0000000E+000	72.1212	0.0000000E+000	0.0000000E+000	0.0000000E+000	-72.1212	0.0000000E+000	0.0000000E+000	0.0000000E+000	-17.8788	0.0000000E+000	0.0000000E+000	0.0000000E+000	17.8788	3.09999	72.1212	-0.000358279
12.188	0.211656	0.0160128	0.21226	-4.32647	3840.32	-0.000262344	-1.27715	815497	4641.07	4	37	0.00509679	0.024012	0	-0.016968	0.291862	0.14629	7.30367	6.77856e-06	5.25383e-06	4.35622e-06	5.83551e-06	6.34276e-06	6.09111e-06	0.306479	0.0292418	0.936901	5.4845e-06	2.61909e-05	6.60576e-05	1.50396e-05	3.33045e-06	6.91318e-06	4.69777	0.35541	4.7112	4.32647	4.64107e+06	6.13453e+07	6.15206e+07	-85.6735	0.0000000E+000	0.0000000E+000	0.0000000E+000	85.6735	0.0000000E+000	0.0000000E+000	0.0000000E+000	-85.6735	0.0000000E+000	0.0000000E+000	0.0000000E+000	-4.32647	0.0000000E+000	0.0000000E+000	0.0000000E+000	4.32647	13.2179	85.6735	-0.000449992
0.124396	0.239764	0.0111184	0.240022	-2.65503	4086.7	-0.000247248	-1.2186	1.15073e+08	246919	4	38	0.00508338	0.0211788	0	-0.108378	0.107425	0.074694	0.539693	1.52609e-06	3.87715e-06	1.40654e-06	1.85042e-06	1.21513e-06	1.34429e-06	0.134919	0.134148	0.458041	8.82685e-06	1.94527e-05	4.41454e-06	1.53826e-05	3.36183e-06	2.4927e-06	4.16181	0.192992	4.16629	2.65503	2.46919e+08	5.32473e+09	5.33045e+09	-87.345	0.0000000E+000	0.0000000E+000	0.0000000E+000	87.345	0.0000000E+000	0.0000000E+000	0.0000000E+000	-87.345	0.0000000E+000	0.0000000E+000	0.0000000E+000	-2.65503	0.0000000E+000	0.0000000E+000	0.0000000E+000	2.65503	21.5647	87.345	-0.0195538
0.0395203	0.245705	0.00624801	0.245784	-1.45666	4602.48	-0.000265258	-1.28013	6.44553e+08	416519	4	38	0.00508562	0.0206914	0	-0.268786	0.0967536	0.111216	0.323468	1.85142e-06	3.12465e-06	1.08654e-06	2.54166e-06	1.1017e-06	1.0042e-06	0.169088	0.210034	0.288622	2.22486e-05	1.34263e-05	8.27667e-06	1.87198e-05	6.32977e-06	5.0444e-06	4.0673	0.103427	4.06861	1.45666	4.16519e+08	1.63797e+10	1.6385e+10	-88.5433	0.0000000E+000	0.0000000E+000	0.0000000E+000	88.5433	0.0000000E+000	0.0000000E+000	0.0000000E+000	-88.5433	0.0000000E+000	0.0000000E+000	0.0000000E+000	-1.45666	0.0000000E+000	0.0000000E+000	0.0000000E+000	1.45666	39.3253	88.5433	-0.0638098