File: Python/Experiments/IRFB/FirstCell/Data/240411-EIS-50mM_FeCl2FeCl3-1M_HCl-20mLmin-25mHz_20ppd_C15.mpt
EC-Lab ASCII FILE
Nb header lines : 66

Potentio Electrochemical Impedance Spectroscopy

Run on channel : 15 (SN 19485)
User :
Electrode connection : standard
Potential control : Ewe
Ewe ctrl range : min = -1.00 V, max = 1.00 V
Ewe,I filtering : <None>
Safety Limits :
	Do not start on E overload
Channel : Floating
Acquisition started on : 04/11/2024 10:02:50.464
Loaded Setting File :  NONE
Saved on :
	File : 240411-EIS-50mM_FeCl2FeCl3-1M_HCl-20mLmin-25mHz_20ppd_C15.mpr
	Directory : C:\Data\mathias\IRFB\
	Host : 192.168.0.1
Device : VMP-300 (SN 0826)
Address : USB
EC-Lab for windows v11.52 (software)
Internet server v11.52 (firmware)
Command interpretor v11.52 (firmware)
Electrode material :
Initial state :
Electrolyte :
Comments :
Cable : special
Electrode surface area : 0.001 cm²
Characteristic mass : 0.001 g
Equivalent Weight : 0.000 g/eq.
Density : 0.000 g/cm3
Volume (V) : 0.001 cm³
Record EIS quality indicators
Cycle Definition : Charge/Discharge alternance
Mode                Single sine
E (V)               0.0000
vs.                 Eoc
tE (h:m:s)          0:00:0.0000
record              0
dI                  0.000
unit dI             mA
dt (s)              0.000
fi                  920.000
unit fi             kHz
ff                  25.000
unit ff             mHz
Nd                  20
Points              per decade
spacing             Logarithmic
Va (mV)             5.0
pw                  0.10
Na                  3
corr                0
E range min (V)     -1.000
E range max (V)     1.000
I Range             Auto
Bandwidth           8
nc cycles           0
goto Ns'            0
nr cycles           999
inc. cycle          1

freq/Hz	Re(Z)/Ohm	-Im(Z)/Ohm	|Z|/Ohm	Phase(Z)/deg	time/s	<Ewe>/V	<I>/mA	Cs/µF	Cp/µF	cycle number	I Range	|Ewe|/V	|I|/A	Ns	(Q-Qo)/mA.h	THD Ewe/%	NSD Ewe/%	NSR Ewe/%	|Ewe h2|/V	|Ewe h3|/V	|Ewe h4|/V	|Ewe h5|/V	|Ewe h6|/V	|Ewe h7|/V	THD I/%	NSD I/%	NSR I/%	|I h2|/A	|I h3|/A	|I h4|/A	|I h5|/A	|I h6|/A	|I h7|/A	Re(Y)/Ohm-1	Im(Y)/Ohm-1	|Y|/Ohm-1	Phase(Y)/deg	Re(C)/nF	Im(C)/nF	|C|/nF	Phase(C)/deg	Re(M)	Im(M)	|M|	Phase(M)/deg	Re(Permittivity)	Im(Permittivity)	|Permittivity|	Phase(Permittivity)/deg	Re(Resistivity)/Ohm.cm	Im(Resistivity)/Ohm.cm	|Resistivity|/Ohm.cm	Phase(Resistivity)/deg	Re(Conductivity)/mS/cm	Im(Conductivity)/mS/cm	|Conductivity|/mS/cm	Phase(Conductivity)/deg	Tan(Delta)	Loss Angle(Delta)/deg	dq/mA.h
920001	-0.130327	-0.126489	0.181617	135.856	1.97749	-0.00013076	-0.471948	-1.36766	-0.663395	1	37	0.000540111	0.0029739	0	-0.000239721	-1	-1	-1	0	0	0	0	0	0	-1	-1	-1	0	0	0	0	0	0	-3.95114	-3.83478	5.50609	-135.856	-663.395	-683.525	952.523	134.144	0.0000000E+000	0.0000000E+000	0.0000000E+000	-134.144	0.0000000E+000	0.0000000E+000	0.0000000E+000	134.144	0.0000000E+000	0.0000000E+000	0.0000000E+000	135.856	0.0000000E+000	0.0000000E+000	0.0000000E+000	-135.856	1.03034	45.8562	-0.000239721
290232	0.0514552	-0.00315388	0.0515518	3.50749	13.4525	-0.00012252	-0.46843	-173.872	-0.65078	1	37	0.00116181	0.0225369	0	-0.0017343	-1	-1	-1	0	0	0	0	0	0	-1	-1	-1	0	0	0	0	0	0	19.3616	-1.18675	19.398	-3.50749	-650.779	10617.4	10637.3	-93.5075	0.0000000E+000	0.0000000E+000	0.0000000E+000	93.5075	0.0000000E+000	0.0000000E+000	0.0000000E+000	-93.5075	0.0000000E+000	0.0000000E+000	0.0000000E+000	3.50749	0.0000000E+000	0.0000000E+000	0.0000000E+000	-3.50749	16.3149	86.4925	-0.000159906
91560.3	0.0621454	0.00245936	0.062194	-2.26626	24.7965	-0.000129678	-0.447211	706.79	1.10519	1	37	0.00510076	0.0820136	0	-0.00323373	0.280755	0.170547	6.77663	3.9941e-06	6.52779e-06	3.62535e-06	5.12156e-06	4.78847e-06	7.26355e-06	0.133686	0.0193393	0.242816	2.08451e-05	0.000107191	6.73566e-06	4.36141e-06	2.42905e-06	2.6935e-06	16.0661	0.635807	16.0787	2.26626	1105.19	27927	27948.9	-87.7337	0.0000000E+000	0.0000000E+000	0.0000000E+000	87.7337	0.0000000E+000	0.0000000E+000	0.0000000E+000	-87.7337	0.0000000E+000	0.0000000E+000	0.0000000E+000	-2.26626	0.0000000E+000	0.0000000E+000	0.0000000E+000	2.26626	25.2689	87.7337	-0.000134724
28884	0.0664314	0.00842931	0.0669641	-7.23147	36.2775	-0.00012636	-0.425566	653.689	10.3579	1	37	0.00509481	0.0760827	0	-0.0045191	0.292434	0.155319	6.90413	6.02778e-06	7.54871e-06	6.90502e-06	3.35383e-06	3.91982e-06	4.02495e-06	0.170008	0.0428792	0.264548	3.4946e-05	0.000123618	7.11032e-06	1.23443e-05	2.79662e-06	5.11186e-06	14.8146	1.87979	14.9334	7.23147	10357.9	81630.6	82285.1	-82.7685	0.0000000E+000	0.0000000E+000	0.0000000E+000	82.7685	0.0000000E+000	0.0000000E+000	0.0000000E+000	-82.7685	0.0000000E+000	0.0000000E+000	0.0000000E+000	-7.23147	0.0000000E+000	0.0000000E+000	0.0000000E+000	7.23147	7.881	82.7685	-0.000121147
9107.2	0.0744644	0.0156357	0.0760883	-11.8584	47.7625	-0.000245139	-0.679573	1117.68	47.1973	1	37	0.00515567	0.0677591	0	-0.00593093	0.395646	0.157274	6.7104	1.08446e-05	1.23618e-05	4.28161e-06	3.79728e-06	6.30116e-06	6.33248e-06	0.1654	0.0221828	0.295104	1.32245e-05	0.000110434	3.3265e-06	1.11352e-05	3.45793e-06	5.22079e-06	12.8621	2.70073	13.1426	11.8584	47197.2	224775	229677	-78.1416	0.0000000E+000	0.0000000E+000	0.0000000E+000	78.1416	0.0000000E+000	0.0000000E+000	0.0000000E+000	-78.1416	0.0000000E+000	0.0000000E+000	0.0000000E+000	-11.8584	0.0000000E+000	0.0000000E+000	0.0000000E+000	11.8584	4.76247	78.1416	-0.000212245
2874.08	0.0881147	0.0252031	0.0916482	-15.9619	60.5798	-0.000234737	-0.651582	2197.19	166.16	1	37	0.00509154	0.0555553	0	-0.00828448	0.311545	0.17092	6.66923	6.04895e-06	8.85187e-06	6.43938e-06	6.40351e-06	4.3338e-06	4.46646e-06	0.0893693	0.0985857	0.367351	9.13488e-06	4.7898e-05	3.08273e-06	4.11124e-06	4.48191e-06	4.95926e-06	10.4906	3.00058	10.9113	15.9619	166160	580926	604222	-74.0381	0.0000000E+000	0.0000000E+000	0.0000000E+000	74.0381	0.0000000E+000	0.0000000E+000	0.0000000E+000	-74.0381	0.0000000E+000	0.0000000E+000	0.0000000E+000	-15.9619	0.0000000E+000	0.0000000E+000	0.0000000E+000	15.9619	3.49619	74.0381	-0.000156288
907.034	0.109269	0.038231	0.115764	-19.2839	73.8653	-0.000242324	-0.643375	4589.66	500.57	1	37	0.00502821	0.043435	0	-0.010713	0.346677	0.198226	6.87728	6.81014e-06	7.41617e-06	4.1058e-06	6.0697e-06	8.44445e-06	5.18565e-06	0.0502394	0.0625136	0.460671	6.74408e-06	1.23954e-05	4.13322e-06	1.2948e-05	5.75114e-06	4.75121e-06	8.1536	2.85278	8.63826	19.2839	500570	1.43069e+06	1.51573e+06	-70.7161	0.0000000E+000	0.0000000E+000	0.0000000E+000	70.7161	0.0000000E+000	0.0000000E+000	0.0000000E+000	-70.7161	0.0000000E+000	0.0000000E+000	0.0000000E+000	-19.2839	0.0000000E+000	0.0000000E+000	0.0000000E+000	19.2839	2.85812	70.7161	-0.000252253
286.007	0.138943	0.0569477	0.150161	-22.2869	85.5961	-0.000220589	-0.639188	9771.63	1405.42	1	37	0.00548662	0.0365383	0	-0.0128142	0.283668	0.156029	6.34829	5.27819e-06	5.64173e-06	6.96868e-06	5.80058e-06	3.49228e-06	8.61652e-06	0.0966757	0.0238215	0.545226	3.48493e-06	2.86088e-05	5.99933e-06	1.819e-05	4.33933e-06	3.83259e-06	6.16203	2.52559	6.65952	22.2869	1.40542e+06	3.429e+06	3.70584e+06	-67.7131	0.0000000E+000	0.0000000E+000	0.0000000E+000	67.7131	0.0000000E+000	0.0000000E+000	0.0000000E+000	-67.7131	0.0000000E+000	0.0000000E+000	0.0000000E+000	-22.2869	0.0000000E+000	0.0000000E+000	0.0000000E+000	22.2869	2.43984	67.7131	-0.000220268
90.2601	0.193863	0.089892	0.21369	-24.8766	96.6662	-0.000225156	-0.684469	19615.7	3471.19	1	37	0.00523148	0.0244816	0	-0.0147696	0.314624	0.121318	6.64394	5.82256e-06	4.11037e-06	7.25079e-06	6.54334e-06	8.04761e-06	6.87577e-06	0.191322	0.0261227	0.816096	8.37723e-06	3.10567e-05	4.01561e-06	3.19133e-05	5.35076e-06	7.47595e-06	4.24548	1.96858	4.67968	24.8766	3.47119e+06	7.48602e+06	8.25165e+06	-65.1234	0.0000000E+000	0.0000000E+000	0.0000000E+000	65.1234	0.0000000E+000	0.0000000E+000	0.0000000E+000	-65.1234	0.0000000E+000	0.0000000E+000	0.0000000E+000	-24.8766	0.0000000E+000	0.0000000E+000	0.0000000E+000	24.8766	2.15662	65.1234	-0.000209249
28.4608	0.28625	0.0883826	0.299583	-17.1586	107.7	-0.00021729	-0.664407	63271.1	5506.85	1	37	0.00510037	0.0170249	0	-0.01684	0.301419	0.166291	6.87431	7.90726e-06	5.46011e-06	6.96515e-06	1.82668e-06	5.31495e-06	5.77635e-06	0.196872	0.0518118	1.18147	8.1576e-06	1.88164e-05	3.02856e-06	2.38676e-05	5.50739e-06	5.85029e-06	3.1894	0.984762	3.33797	17.1586	5.50685e+06	1.78353e+07	1.86661e+07	-72.8414	0.0000000E+000	0.0000000E+000	0.0000000E+000	72.8414	0.0000000E+000	0.0000000E+000	0.0000000E+000	-72.8414	0.0000000E+000	0.0000000E+000	0.0000000E+000	-17.1586	0.0000000E+000	0.0000000E+000	0.0000000E+000	17.1586	3.23875	72.8414	-0.00020558
8.97989	0.339087	0.0467166	0.34229	-7.84436	118.927	-0.000209554	-0.624634	379384	7066.96	1	37	0.00507871	0.0148375	0	-0.0188929	0.255436	0.112481	4.65139	3.77513e-06	6.67977e-06	4.24748e-06	6.33711e-06	4.59583e-06	3.70951e-06	0.124744	0.0618936	1.0083	5.37399e-06	1.2484e-05	3.05774e-06	1.01827e-05	4.60095e-06	3.57221e-06	2.89417	0.398734	2.9215	7.84436	7.06696e+06	5.12947e+07	5.17792e+07	-82.1556	0.0000000E+000	0.0000000E+000	0.0000000E+000	82.1556	0.0000000E+000	0.0000000E+000	0.0000000E+000	-82.1556	0.0000000E+000	0.0000000E+000	0.0000000E+000	-7.84436	0.0000000E+000	0.0000000E+000	0.0000000E+000	7.84436	7.25838	82.1556	-0.000185738
2.83369	0.35424	0.0217975	0.35491	-3.52114	136.456	-0.000216012	-0.669773	2.57669e+06	9719.34	1	37	0.00507645	0.0143035	0	-0.0222864	0.16189	0.0979698	2.51972	1.27055e-06	4.04828e-06	2.82306e-06	4.51966e-06	3.00713e-06	2.79483e-06	0.120297	0.049029	0.7123	5.71808e-06	1.30199e-05	1.9071e-06	8.58411e-06	2.91376e-06	1.87989e-06	2.8123	0.173049	2.81762	3.52114	9.71933e+06	1.57953e+08	1.58252e+08	-86.4789	0.0000000E+000	0.0000000E+000	0.0000000E+000	86.4789	0.0000000E+000	0.0000000E+000	0.0000000E+000	-86.4789	0.0000000E+000	0.0000000E+000	0.0000000E+000	-3.52114	0.0000000E+000	0.0000000E+000	0.0000000E+000	3.52114	16.2514	86.4789	-0.000665507
0.893876	0.360234	0.0152433	0.360557	-2.42302	184.419	-0.000200977	-0.592732	1.16806e+07	20877.3	1	38	0.0050753	0.0140763	0	-0.0305656	0.130632	0.109852	1.33473	1.14949e-06	5.67887e-06	1.30176e-06	2.05769e-06	1.07587e-06	1.48309e-06	0.121182	0.065975	0.443981	5.13496e-06	1.23283e-05	1.78068e-06	1.01582e-05	7.74197e-07	1.29134e-06	2.77101	0.117255	2.77349	2.42302	2.08774e+07	4.93379e+08	4.93821e+08	-87.577	0.0000000E+000	0.0000000E+000	0.0000000E+000	87.577	0.0000000E+000	0.0000000E+000	0.0000000E+000	-87.577	0.0000000E+000	0.0000000E+000	0.0000000E+000	-2.42302	0.0000000E+000	0.0000000E+000	0.0000000E+000	2.42302	23.6323	87.577	-0.00143148
0.281811	0.370875	0.0240762	0.371655	-3.71428	323.646	-0.000200751	-0.608982	2.34571e+07	98439.6	1	38	0.00507464	0.0136542	0	-0.0516158	0.101848	0.0971465	0.76752	1.92274e-06	3.38284e-06	1.20481e-06	2.0596e-06	1.12758e-06	6.03056e-07	0.123991	0.0905435	0.429433	6.6622e-06	9.48543e-06	4.27276e-06	9.94621e-06	3.41197e-06	2.18662e-06	2.68501	0.174304	2.69067	3.71428	9.84396e+07	1.51638e+09	1.51958e+09	-86.2857	0.0000000E+000	0.0000000E+000	0.0000000E+000	86.2857	0.0000000E+000	0.0000000E+000	0.0000000E+000	-86.2857	0.0000000E+000	0.0000000E+000	0.0000000E+000	-3.71428	0.0000000E+000	0.0000000E+000	0.0000000E+000	3.71428	15.4042	86.2857	-0.00186435
0.0888996	0.393955	0.0205638	0.394491	-2.98804	757.97	-0.000243845	-0.660098	8.70596e+07	236565	1	38	0.00507567	0.0128664	0	-0.136493	0.101053	0.100075	0.421104	1.21279e-06	4.20579e-06	1.31885e-06	1.86917e-06	4.48437e-07	7.79943e-07	0.121077	0.0737419	0.282996	4.78373e-06	1.05361e-05	2.37374e-06	9.55153e-06	1.23263e-06	1.08352e-06	2.53147	0.132139	2.53491	2.98804	2.36565e+08	4.53203e+09	4.5382e+09	-87.012	0.0000000E+000	0.0000000E+000	0.0000000E+000	87.012	0.0000000E+000	0.0000000E+000	0.0000000E+000	-87.012	0.0000000E+000	0.0000000E+000	0.0000000E+000	-2.98804	0.0000000E+000	0.0000000E+000	0.0000000E+000	2.98804	19.1577	87.012	-0.0133882
0.0280409	0.406354	0.0158724	0.406664	-2.23686	2128.51	-0.000223011	-0.629224	3.57591e+08	544753	1	38	0.00507519	0.0124801	0	-0.356339	0.124028	0.150006	0.274611	1.91892e-06	4.8134e-06	1.79992e-06	2.6398e-06	7.53842e-07	8.98636e-07	0.146118	0.155953	0.221536	8.16072e-06	9.93689e-06	4.1054e-06	1.10306e-05	1.14945e-06	3.15062e-06	2.45716	0.0959778	2.45903	2.23686	5.44753e+08	1.39464e+10	1.3957e+10	-87.7631	0.0000000E+000	0.0000000E+000	0.0000000E+000	87.7631	0.0000000E+000	0.0000000E+000	0.0000000E+000	-87.7631	0.0000000E+000	0.0000000E+000	0.0000000E+000	-2.23686	0.0000000E+000	0.0000000E+000	0.0000000E+000	2.23686	25.6013	87.7631	-0.0241519
460427	0.0283232	-0.00850297	0.029572	16.7104	2381.56	-0.000104569	-0.414401	-40.6526	-3.36101	2	37	0.000303969	0.010279	0	-0.00147974	-1	-1	-1	0	0	0	0	0	0	-1	-1	-1	0	0	0	0	0	0	32.3878	-9.72322	33.8158	-16.7104	-3361.01	11195.4	11689	-106.71	0.0000000E+000	0.0000000E+000	0.0000000E+000	106.71	0.0000000E+000	0.0000000E+000	0.0000000E+000	-106.71	0.0000000E+000	0.0000000E+000	0.0000000E+000	16.7104	0.0000000E+000	0.0000000E+000	0.0000000E+000	-16.7104	3.33097	73.2896	-0.000140305