File: Python/Experiments/IRFB/240515-Paper-1p5M_FeCl2FeCl3-1M_HCl/Data/240515-EIS-Paper-1p5M_FeCl2FeCl3-1M_HCl-Wamup_10mLmin-4xFlowRate-20mHz_10ppd_03_PEIS_C15.mpt
EC-Lab ASCII FILE
Nb header lines : 75

Potentio Electrochemical Impedance Spectroscopy

Run on channel : 15 (SN 19485)
User :
Electrode connection : standard
Potential control : Ewe
Ewe ctrl range : min = -1.00 V, max = 1.00 V
Ewe,I filtering : 50 kHz
Safety Limits :
	Do not start on E overload
Channel : Grounded
Acquisition started on : 05/15/2024 11:35:32.904
Loaded Setting File :  C:\Data\mathias\IRFB\240507-EIS-Cloth-1p5M_FeCl2FeCl3-1M_HCl-Wamup_10mLmin-4xFlowRate-20mHz_10ppd.mps
Saved on :
	File : 240515-EIS-Paper-1p5M_FeCl2FeCl3-1M_HCl-Wamup_10mLmin-4xFlowRate-20mHz_10ppd_03_PEIS_C15.mpr
	Directory : C:\Data\mathias\IRFB\
	Host : 192.168.0.1
Device : VMP-300 (SN 0826)
Address : USB
EC-Lab for windows v11.52 (software)
Internet server v11.52 (firmware)
Command interpretor v11.52 (firmware)
Electrode material :
Initial state :
Electrolyte :
Comments :
Cable : special
Electrode surface area : 0.001 cm²
Characteristic mass : 0.001 g
Equivalent Weight : 0.000 g/eq.
Density : 0.000 g/cm3
Volume (V) : 0.001 cm³
Record EIS quality indicators
Cycle Definition : Charge/Discharge alternance
External device configuration :
   device type : Other
   device name : Other
   Analog OUT :
      mode : E/V
      unit : KNF Pump/ml/min
      max : 120.000 at 5.000 V
      min : 0.000 at 0.000 V
      current : 3.400
Mode                Single sine
E (V)               0.0000
vs.                 Eoc
tE (h:m:s)          0:10:0.0000
record              0
dI                  0.000
unit dI             mA
dt (s)              0.000
fi                  220.000
unit fi             kHz
ff                  20.000
unit ff             mHz
Nd                  10
Points              per decade
spacing             Logarithmic
Va (mV)             5.0
pw                  0.10
Na                  3
corr                0
E range min (V)     -1.000
E range max (V)     1.000
I Range             Auto
Bandwidth           8
nc cycles           2
goto Ns'            0
nr cycles           0
inc. cycle          0

freq/Hz	Re(Z)/Ohm	-Im(Z)/Ohm	|Z|/Ohm	Phase(Z)/deg	time/s	<Ewe>/V	<I>/mA	Cs/µF	Cp/µF	cycle number	I Range	|Ewe|/V	|I|/A	Ns	(Q-Qo)/mA.h	Analog OUT/V	THD Ewe/%	NSD Ewe/%	NSR Ewe/%	|Ewe h2|/V	|Ewe h3|/V	|Ewe h4|/V	|Ewe h5|/V	|Ewe h6|/V	|Ewe h7|/V	THD I/%	NSD I/%	NSR I/%	|I h2|/A	|I h3|/A	|I h4|/A	|I h5|/A	|I h6|/A	|I h7|/A	Re(Y)/Ohm-1	Im(Y)/Ohm-1	|Y|/Ohm-1	Phase(Y)/deg	Re(C)/nF	Im(C)/nF	|C|/nF	Phase(C)/deg	Re(M)	Im(M)	|M|	Phase(M)/deg	Re(Permittivity)	Im(Permittivity)	|Permittivity|	Phase(Permittivity)/deg	Re(Resistivity)/Ohm.cm	Im(Resistivity)/Ohm.cm	|Resistivity|/Ohm.cm	Phase(Resistivity)/deg	Re(Conductivity)/mS/cm	Im(Conductivity)/mS/cm	|Conductivity|/mS/cm	Phase(Conductivity)/deg	Tan(Delta)	Loss Angle(Delta)/deg	dq/mA.h
220003	0.0950294	-0.0119692	0.0957803	7.17875	93326.6	-0.00104816	-4.87359	-60.4403	-0.943856	1	37	0.00338024	0.0352916	0	-0.899556	3.4	-1	-1	-1	0	0	0	0	0	0	-1	-1	-1	0	0	0	0	0	0	10.3587	-1.30471	10.4406	-7.17875	-943.857	7493.74	7552.95	-97.1788	0.0000000E+000	0.0000000E+000	0.0000000E+000	97.1788	0.0000000E+000	0.0000000E+000	0.0000000E+000	-97.1788	0.0000000E+000	0.0000000E+000	0.0000000E+000	7.17875	0.0000000E+000	0.0000000E+000	0.0000000E+000	-7.17875	7.93949	82.8212	-0.899556
8590.41	0.0998588	0.000857781	0.0998625	-0.492155	93342.6	-0.00116482	-5.42791	21598.8	1.59359	1	37	0.00525091	0.0525814	0	-0.920773	3.4	0.395207	0.172006	5.41846	6.64775e-06	1.06642e-05	4.28437e-06	7.33497e-06	7.3132e-06	7.9403e-06	0.125415	0.0568294	0.407938	9.58886e-06	6.33041e-05	4.68131e-06	1.25758e-05	5.86694e-06	4.75501e-06	10.0134	0.0860145	10.0138	0.492155	1593.6	185519	185526	-89.5078	0.0000000E+000	0.0000000E+000	0.0000000E+000	89.5078	0.0000000E+000	0.0000000E+000	0.0000000E+000	-89.5078	0.0000000E+000	0.0000000E+000	0.0000000E+000	-0.492155	0.0000000E+000	0.0000000E+000	0.0000000E+000	0.492155	116.415	89.5078	-0.00161871
335.537	0.104704	0.00236915	0.104731	-1.29621	93360.8	-0.00116869	-5.01116	200210	102.452	1	37	0.0053516	0.0510985	0	-0.947606	3.4	0.287573	0.171801	5.29244	7.86277e-06	4.08978e-06	3.26227e-06	7.56106e-06	4.86631e-06	6.47951e-06	0.0467295	0.0118212	0.43571	6.70532e-06	1.64631e-05	3.79441e-06	1.3512e-05	5.03621e-06	4.2995e-06	9.54582	0.215994	9.54826	1.29621	102452	4.52786e+06	4.52902e+06	-88.7038	0.0000000E+000	0.0000000E+000	0.0000000E+000	88.7038	0.0000000E+000	0.0000000E+000	0.0000000E+000	-88.7038	0.0000000E+000	0.0000000E+000	0.0000000E+000	-1.29621	0.0000000E+000	0.0000000E+000	0.0000000E+000	1.29621	44.1948	88.7038	-0.00145586
13.1083	0.109479	0.00354687	0.109536	-1.85561	93376.6	-0.00114343	-5.39575	3.42318e+06	3589.26	1	37	0.0054409	0.0496721	0	-0.971134	3.4	0.282338	0.0829324	3.73886	7.04453e-06	5.45953e-06	6.57675e-06	4.65483e-06	6.50542e-06	5.61757e-06	0.137747	0.0934961	0.358993	1.58124e-05	3.59785e-05	3.86285e-05	3.66189e-05	5.78816e-06	5.24473e-06	9.12461	0.295617	9.1294	1.85561	3.58926e+06	1.10787e+08	1.10845e+08	-88.1444	0.0000000E+000	0.0000000E+000	0.0000000E+000	88.1444	0.0000000E+000	0.0000000E+000	0.0000000E+000	-88.1444	0.0000000E+000	0.0000000E+000	0.0000000E+000	-1.85561	0.0000000E+000	0.0000000E+000	0.0000000E+000	1.85561	30.8663	88.1444	-0.00157652
0.511825	0.121615	0.0166001	0.122743	-7.77263	93437.3	-0.00115015	-5.01491	1.87322e+07	342621	1	37	0.00543028	0.044241	0	-1.06165	3.4	0.1151	0.0496032	0.864852	1.99006e-06	3.73096e-06	1.3981e-06	3.38496e-06	2.31218e-06	3.13046e-07	0.129654	0.583875	0.282484	3.38703e-05	2.73589e-05	9.59283e-06	3.18397e-05	1.06787e-05	7.72697e-06	8.07224	1.10183	8.1471	7.77263	3.42621e+08	2.51011e+09	2.53339e+09	-82.2274	0.0000000E+000	0.0000000E+000	0.0000000E+000	82.2274	0.0000000E+000	0.0000000E+000	0.0000000E+000	-82.2274	0.0000000E+000	0.0000000E+000	0.0000000E+000	-7.77263	0.0000000E+000	0.0000000E+000	0.0000000E+000	7.77263	7.32621	82.2274	-0.0155153
0.0199946	0.207403	0.0364082	0.210575	-9.95645	94860.7	-0.00116006	-5.36154	2.18629e+08	6.53575e+06	1	37	0.00539798	0.0256345	0	-3.16506	3.4	0.124344	0.129274	0.223421	2.16047e-06	4.18626e-06	2.17848e-06	3.72633e-06	1.75468e-06	7.64498e-07	3.69065	0.27294	4.7157	6.06316e-05	0.000125703	0.000672983	0.000460023	0.000412507	0.000198214	4.67739	0.821085	4.74891	9.95645	6.53575e+09	3.72315e+10	3.78008e+10	-80.0436	0.0000000E+000	0.0000000E+000	0.0000000E+000	80.0436	0.0000000E+000	0.0000000E+000	0.0000000E+000	-80.0436	0.0000000E+000	0.0000000E+000	0.0000000E+000	-9.95645	0.0000000E+000	0.0000000E+000	0.0000000E+000	9.95645	5.6966	80.0436	-0.420324
10837.3	0.0995015	0.000528241	0.099503	-0.304173	94876.8	-0.00107968	-4.80841	27801.4	0.783537	2	37	0.00514131	0.0516699	0	-3.19587	3.4	0.310749	0.175638	5.65574	8.16891e-06	4.79469e-06	4.53858e-06	7.24679e-06	3.99593e-06	7.83795e-06	0.146763	0.0320993	0.402342	4.28455e-06	4.77672e-05	5.10706e-06	6.07436e-06	6.24266e-06	5.7752e-05	10.0498	0.0533531	10.05	0.304173	783.545	147590	147592	-89.6958	0.0000000E+000	0.0000000E+000	0.0000000E+000	89.6958	0.0000000E+000	0.0000000E+000	0.0000000E+000	-89.6958	0.0000000E+000	0.0000000E+000	0.0000000E+000	-0.304173	0.0000000E+000	0.0000000E+000	0.0000000E+000	0.304173	188.364	89.6958	-0.00161251
423.239	0.104456	0.00236944	0.104482	-1.29946	94895.1	-0.00118554	-5.65653	158704	81.6194	2	37	0.00502413	0.0480859	0	-3.22351	3.4	0.299349	0.166549	5.71759	5.01615e-06	6.32036e-06	5.41001e-06	6.96278e-06	6.06915e-06	4.06058e-06	0.0453622	0.0182591	0.459157	8.01175e-06	1.43263e-05	2.1682e-06	1.02177e-05	6.18606e-06	6.49911e-06	9.56853	0.21705	9.57099	1.29946	81619.1	3.59815e+06	3.59908e+06	-88.7005	0.0000000E+000	0.0000000E+000	0.0000000E+000	88.7005	0.0000000E+000	0.0000000E+000	0.0000000E+000	-88.7005	0.0000000E+000	0.0000000E+000	0.0000000E+000	-1.29946	0.0000000E+000	0.0000000E+000	0.0000000E+000	1.29946	44.0845	88.7005	-0.00221945
16.5286	0.109107	0.00313953	0.109152	-1.64823	94911	-0.0011787	-5.66784	3.06704e+06	2537.4	2	37	0.00497485	0.0455774	0	-3.24739	3.4	0.267166	0.205133	5.66804	3.8433e-06	7.04269e-06	6.22455e-06	4.9621e-06	3.04675e-06	4.30823e-06	0.182502	0.0755005	0.450428	5.92459e-06	7.16089e-05	1.21974e-05	3.69172e-05	1.01088e-05	5.83944e-06	9.15777	0.263514	9.16156	1.64823	2.5374e+06	8.81808e+07	8.82173e+07	-88.3518	0.0000000E+000	0.0000000E+000	0.0000000E+000	88.3518	0.0000000E+000	0.0000000E+000	0.0000000E+000	-88.3518	0.0000000E+000	0.0000000E+000	0.0000000E+000	-1.64823	0.0000000E+000	0.0000000E+000	0.0000000E+000	1.64823	34.7525	88.3518	-0.00189532
0.645874	0.119679	0.0145861	0.120564	-6.94877	94960.7	-0.00118226	-5.73921	1.6894e+07	247271	2	37	0.00496436	0.0411761	0	-3.32518	3.4	0.130921	0.0937357	1.07869	2.03421e-06	3.9089e-06	8.12821e-07	3.09327e-06	2.01907e-06	1.51986e-06	0.289025	0.715642	0.414756	7.39502e-05	5.20634e-05	3.29268e-05	5.50934e-05	2.70337e-05	1.47664e-05	8.23341	1.00346	8.29434	6.94877	2.47272e+08	2.02886e+09	2.04387e+09	-83.0512	0.0000000E+000	0.0000000E+000	0.0000000E+000	83.0512	0.0000000E+000	0.0000000E+000	0.0000000E+000	-83.0512	0.0000000E+000	0.0000000E+000	0.0000000E+000	-6.94877	0.0000000E+000	0.0000000E+000	0.0000000E+000	6.94877	8.20499	83.0512	-0.0180527
0.0252177	0.20034	0.041608	0.204615	-11.7328	96090.6	-0.00115669	-5.29582	1.51684e+08	6.27216e+06	2	37	0.00494002	0.024143	0	-4.97269	3.4	0.128422	0.103818	0.264927	1.9559e-06	3.62893e-06	1.18189e-06	3.89278e-06	8.92092e-07	1.38456e-06	4.7238	0.493746	3.38325	0.000124612	0.000894342	0.000483042	0.000469723	0.000127982	0.000106969	4.78512	0.993807	4.88723	11.7328	6.27216e+09	3.02001e+10	3.08445e+10	-78.2672	0.0000000E+000	0.0000000E+000	0.0000000E+000	78.2672	0.0000000E+000	0.0000000E+000	0.0000000E+000	-78.2672	0.0000000E+000	0.0000000E+000	0.0000000E+000	-11.7328	0.0000000E+000	0.0000000E+000	0.0000000E+000	11.7328	4.81494	78.2672	-0.33163
13658	0.0995311	0.000242042	0.0995314	-0.139333	96411.2	-0.00108913	-5.2725	48144.2	0.284711	3	37	0.00516662	0.0519094	0	-5.43877	3.4	0.341211	0.170789	5.46245	6.35654e-06	7.12794e-06	6.58461e-06	9.22543e-06	6.77484e-06	4.5922e-06	0.110212	0.00874423	0.420659	6.41372e-06	5.61713e-05	4.31177e-06	4.18109e-06	3.85095e-06	3.92032e-06	10.0471	0.0244327	10.0471	0.139333	284.717	117077	117078	-89.8607	0.0000000E+000	0.0000000E+000	0.0000000E+000	89.8607	0.0000000E+000	0.0000000E+000	0.0000000E+000	-89.8607	0.0000000E+000	0.0000000E+000	0.0000000E+000	-0.139333	0.0000000E+000	0.0000000E+000	0.0000000E+000	0.139333	411.214	89.8607	-0.00177531
533.464	0.104097	0.00239536	0.104125	-1.31819	96429.3	-0.00118493	-5.68206	124550	65.9139	3	37	0.00506854	0.0486775	0	-5.46579	3.4	0.336879	0.162653	5.5993	5.90358e-06	1.01042e-05	7.94401e-06	4.10625e-06	4.41246e-06	3.63443e-06	0.0436557	0.0171831	0.455433	8.24395e-06	1.02531e-05	5.18503e-06	1.51503e-05	2.4925e-06	2.45123e-06	9.60132	0.220934	9.60386	1.31819	65913.7	2.86448e+06	2.86524e+06	-88.6818	0.0000000E+000	0.0000000E+000	0.0000000E+000	88.6818	0.0000000E+000	0.0000000E+000	0.0000000E+000	-88.6818	0.0000000E+000	0.0000000E+000	0.0000000E+000	-1.31819	0.0000000E+000	0.0000000E+000	0.0000000E+000	1.31819	43.4579	88.6818	-0.0020196
20.8333	0.108609	0.00305014	0.108652	-1.60865	96445.2	-0.0011689	-5.02832	2.50462e+06	1973.81	3	37	0.00543504	0.0500224	0	-5.48975	3.4	0.261827	0.16645	5.27441	3.44306e-06	6.1293e-06	4.79e-06	4.9765e-06	5.29393e-06	7.4649e-06	0.135688	0.108382	0.42398	9.83259e-06	4.53222e-05	7.96537e-06	4.40989e-05	7.12939e-06	1.56316e-05	9.20006	0.25837	9.20368	1.60865	1.9738e+06	7.02833e+07	7.0311e+07	-88.3914	0.0000000E+000	0.0000000E+000	0.0000000E+000	88.3914	0.0000000E+000	0.0000000E+000	0.0000000E+000	-88.3914	0.0000000E+000	0.0000000E+000	0.0000000E+000	-1.60865	0.0000000E+000	0.0000000E+000	0.0000000E+000	1.60865	35.608	88.3914	-0.00138904
0.813551	0.118138	0.0130749	0.118859	-6.31553	96486.2	-0.00117306	-5.43668	1.49622e+07	181055	3	37	0.00543123	0.0456946	0	-5.55275	3.4	0.112633	0.102039	1.10009	1.24827e-06	3.44041e-06	1.2029e-06	3.71193e-06	1.89393e-06	1.63339e-06	0.168709	0.364393	0.299765	4.11767e-05	3.73755e-05	2.02228e-05	4.44083e-05	1.20532e-05	4.39222e-06	8.36226	0.925496	8.41332	6.31553	1.81055e+08	1.63591e+09	1.6459e+09	-83.6845	0.0000000E+000	0.0000000E+000	0.0000000E+000	83.6845	0.0000000E+000	0.0000000E+000	0.0000000E+000	-83.6845	0.0000000E+000	0.0000000E+000	0.0000000E+000	-6.31553	0.0000000E+000	0.0000000E+000	0.0000000E+000	6.31553	9.03544	83.6845	-0.0148756
0.0317924	0.191182	0.0457502	0.19658	-13.4579	97383.5	-0.00117591	-5.37676	1.09422e+08	5.92668e+06	3	37	0.00540399	0.0274901	0	-6.85979	3.4	0.131636	0.164963	0.25803	3.36714e-06	4.05106e-06	9.29928e-07	3.69531e-06	2.37873e-06	9.23385e-07	2.8823	0.939204	4.54548	0.000585331	0.000411482	0.000256264	0.000136885	0.000148687	5.03768e-05	4.94731	1.1839	5.08699	13.4579	5.92668e+09	2.47665e+10	2.54658e+10	-76.5421	0.0000000E+000	0.0000000E+000	0.0000000E+000	76.5421	0.0000000E+000	0.0000000E+000	0.0000000E+000	-76.5421	0.0000000E+000	0.0000000E+000	0.0000000E+000	-13.4579	0.0000000E+000	0.0000000E+000	0.0000000E+000	13.4579	4.17882	76.5421	-0.262681
0.0199946	0.207423	0.0364252	0.210597	-9.96007	97931.6	-0.00116729	-5.48483	2.18527e+08	6.53742e+06	3	37	0.00540213	0.0256516	0	-7.67754	3.4	0.116985	0.138882	0.225147	1.3558e-06	3.80656e-06	1.60656e-06	3.71532e-06	1.81022e-06	1.00173e-06	3.84547	0.402696	4.72268	9.28384e-05	0.000117261	0.000663756	0.00045045	0.000541594	0.000110396	4.67685	0.821294	4.74842	9.96007	6.53742e+09	3.72272e+10	3.77969e+10	-80.0399	0.0000000E+000	0.0000000E+000	0.0000000E+000	80.0399	0.0000000E+000	0.0000000E+000	0.0000000E+000	-80.0399	0.0000000E+000	0.0000000E+000	0.0000000E+000	-9.96007	0.0000000E+000	0.0000000E+000	0.0000000E+000	9.96007	5.69449	80.0399	-0.469838