File: Python/Experiments/IRFB/240515-Paper-1p5M_FeCl2FeCl3-1M_HCl/Data/240515-EIS-Paper-1p5M_FeCl2FeCl3-1M_HCl-Wamup_10mLmin-4xFlowRate-20mHz_10ppd_07_PEIS_C15.mpt
EC-Lab ASCII FILE
Nb header lines : 75

Potentio Electrochemical Impedance Spectroscopy

Run on channel : 15 (SN 19485)
User :
Electrode connection : standard
Potential control : Ewe
Ewe ctrl range : min = -1.00 V, max = 1.00 V
Ewe,I filtering : 50 kHz
Safety Limits :
	Do not start on E overload
Channel : Grounded
Acquisition started on : 05/15/2024 11:35:32.904
Loaded Setting File :  C:\Data\mathias\IRFB\240507-EIS-Cloth-1p5M_FeCl2FeCl3-1M_HCl-Wamup_10mLmin-4xFlowRate-20mHz_10ppd.mps
Saved on :
	File : 240515-EIS-Paper-1p5M_FeCl2FeCl3-1M_HCl-Wamup_10mLmin-4xFlowRate-20mHz_10ppd_07_PEIS_C15.mpr
	Directory : C:\Data\mathias\IRFB\
	Host : 192.168.0.1
Device : VMP-300 (SN 0826)
Address : USB
EC-Lab for windows v11.52 (software)
Internet server v11.52 (firmware)
Command interpretor v11.52 (firmware)
Electrode material :
Initial state :
Electrolyte :
Comments :
Cable : special
Electrode surface area : 0.001 cm²
Characteristic mass : 0.001 g
Equivalent Weight : 0.000 g/eq.
Density : 0.000 g/cm3
Volume (V) : 0.001 cm³
Record EIS quality indicators
Cycle Definition : Charge/Discharge alternance
External device configuration :
   device type : Other
   device name : Other
   Analog OUT :
      mode : E/V
      unit : KNF Pump/ml/min
      max : 120.000 at 5.000 V
      min : 0.000 at 0.000 V
      current : 3.400
Mode                Single sine
E (V)               0.0000
vs.                 Eoc
tE (h:m:s)          0:00:0.0000
record              0
dI                  0.000
unit dI             mA
dt (s)              0.000
fi                  220.000
unit fi             kHz
ff                  20.000
unit ff             mHz
Nd                  10
Points              per decade
spacing             Logarithmic
Va (mV)             5.0
pw                  0.10
Na                  3
corr                0
E range min (V)     -1.000
E range max (V)     1.000
I Range             Auto
Bandwidth           8
nc cycles           2
goto Ns'            0
nr cycles           0
inc. cycle          0

freq/Hz	Re(Z)/Ohm	-Im(Z)/Ohm	|Z|/Ohm	Phase(Z)/deg	time/s	<Ewe>/V	<I>/mA	Cs/µF	Cp/µF	cycle number	I Range	|Ewe|/V	|I|/A	Ns	(Q-Qo)/mA.h	Analog OUT/V	THD Ewe/%	NSD Ewe/%	NSR Ewe/%	|Ewe h2|/V	|Ewe h3|/V	|Ewe h4|/V	|Ewe h5|/V	|Ewe h6|/V	|Ewe h7|/V	THD I/%	NSD I/%	NSR I/%	|I h2|/A	|I h3|/A	|I h4|/A	|I h5|/A	|I h6|/A	|I h7|/A	Re(Y)/Ohm-1	Im(Y)/Ohm-1	|Y|/Ohm-1	Phase(Y)/deg	Re(C)/nF	Im(C)/nF	|C|/nF	Phase(C)/deg	Re(M)	Im(M)	|M|	Phase(M)/deg	Re(Permittivity)	Im(Permittivity)	|Permittivity|	Phase(Permittivity)/deg	Re(Resistivity)/Ohm.cm	Im(Resistivity)/Ohm.cm	|Resistivity|/Ohm.cm	Phase(Resistivity)/deg	Re(Conductivity)/mS/cm	Im(Conductivity)/mS/cm	|Conductivity|/mS/cm	Phase(Conductivity)/deg	Tan(Delta)	Loss Angle(Delta)/deg	dq/mA.h
220003	0.0955343	-0.0120191	0.0962874	7.17068	103741	-0.00109262	-7.51004	-60.1893	-0.937835	1	37	0.00338364	0.0351411	0	-0.00340911	7	-1	-1	-1	0	0	0	0	0	0	-1	-1	-1	0	0	0	0	0	0	10.3043	-1.29639	10.3856	-7.17068	-937.835	7454.4	7513.17	-97.1707	0.0000000E+000	0.0000000E+000	0.0000000E+000	97.1707	0.0000000E+000	0.0000000E+000	0.0000000E+000	-97.1707	0.0000000E+000	0.0000000E+000	0.0000000E+000	7.17068	0.0000000E+000	0.0000000E+000	0.0000000E+000	-7.17068	7.94852	82.8293	-0.00340911
8590.41	0.100196	0.000893877	0.1002	-0.511137	103756	-0.00121227	-8.11018	20726.6	1.64948	1	37	0.00524163	0.0523115	0	-0.0357985	7	0.288524	0.159105	5.48395	5.21121e-06	8.89365e-06	4.93054e-06	4.52023e-06	5.99722e-06	3.25143e-06	0.112485	0.0566556	0.414478	2.73125e-06	5.63005e-05	6.04933e-06	1.27801e-05	3.92437e-06	6.69337e-06	9.97962	0.0890309	9.98002	0.511137	1649.49	184893	184900	-89.4889	0.0000000E+000	0.0000000E+000	0.0000000E+000	89.4889	0.0000000E+000	0.0000000E+000	0.0000000E+000	-89.4889	0.0000000E+000	0.0000000E+000	0.0000000E+000	-0.511137	0.0000000E+000	0.0000000E+000	0.0000000E+000	0.511137	112.092	89.4889	-0.00248273
335.537	0.105335	0.00238644	0.105362	-1.29786	103775	-0.00120381	-8.00242	198760	101.968	1	37	0.00535446	0.0508196	0	-0.0762974	7	0.24779	0.14589	5.26959	4.76883e-06	3.87994e-06	4.98808e-06	6.52364e-06	5.56312e-06	5.18414e-06	0.0647729	0.0131125	0.428244	9.69634e-06	2.46512e-05	5.25343e-06	1.58141e-05	4.73519e-06	5.60458e-06	9.48864	0.214972	9.49108	1.29786	101968	4.50074e+06	4.5019e+06	-88.7021	0.0000000E+000	0.0000000E+000	0.0000000E+000	88.7021	0.0000000E+000	0.0000000E+000	0.0000000E+000	-88.7021	0.0000000E+000	0.0000000E+000	0.0000000E+000	-1.29786	0.0000000E+000	0.0000000E+000	0.0000000E+000	1.29786	44.1389	88.7021	-0.00248992
13.1083	0.110165	0.00296931	0.110205	-1.54394	103790	-0.00117574	-7.9968	4.08902e+06	2968.45	1	37	0.00544	0.0493626	0	-0.111144	7	0.238799	0.255552	3.70868	4.59103e-06	5.40788e-06	2.87698e-06	5.97187e-06	3.92952e-06	5.21655e-06	0.133414	0.0845284	0.328064	1.4587e-05	4.02223e-05	3.74451e-05	3.10138e-05	7.18898e-06	6.83731e-06	9.07072	0.244486	9.07401	1.54394	2.96845e+06	1.10133e+08	1.10173e+08	-88.4561	0.0000000E+000	0.0000000E+000	0.0000000E+000	88.4561	0.0000000E+000	0.0000000E+000	0.0000000E+000	-88.4561	0.0000000E+000	0.0000000E+000	0.0000000E+000	-1.54394	0.0000000E+000	0.0000000E+000	0.0000000E+000	1.54394	37.1011	88.4561	-0.00243105
0.511825	0.12269	0.0141512	0.123503	-6.57949	103851	-0.00117632	-7.93357	2.19739e+07	288493	1	37	0.00542794	0.0439498	0	-0.241243	7	0.113529	0.0674806	0.872211	1.40524e-06	3.50339e-06	5.84711e-07	3.79513e-06	2.50296e-06	8.26619e-07	0.128783	0.138545	0.275534	1.22975e-05	3.28363e-05	7.02492e-06	4.23736e-05	5.01934e-06	6.32578e-06	8.04364	0.927763	8.09696	6.57949	2.88493e+08	2.50122e+09	2.5178e+09	-83.4205	0.0000000E+000	0.0000000E+000	0.0000000E+000	83.4205	0.0000000E+000	0.0000000E+000	0.0000000E+000	-83.4205	0.0000000E+000	0.0000000E+000	0.0000000E+000	-6.57949	0.0000000E+000	0.0000000E+000	0.0000000E+000	6.57949	8.66993	83.4205	-0.0218527
0.0199946	0.15775	0.00483154	0.157824	-1.7543	105275	-0.00117472	-7.572	1.64749e+09	1.544e+06	1	37	0.00541467	0.0343083	0	-3.2051	7	0.139379	0.215107	0.23555	3.58975e-06	4.44605e-06	1.37117e-06	4.23872e-06	1.73863e-06	4.59019e-07	0.146651	0.190389	0.348364	1.79827e-05	3.22358e-05	8.34392e-06	3.00657e-05	5.83026e-06	5.30832e-06	6.3332	0.193972	6.33617	1.7543	1.544e+09	5.04116e+10	5.04352e+10	-88.2457	0.0000000E+000	0.0000000E+000	0.0000000E+000	88.2457	0.0000000E+000	0.0000000E+000	0.0000000E+000	-88.2457	0.0000000E+000	0.0000000E+000	0.0000000E+000	-1.7543	0.0000000E+000	0.0000000E+000	0.0000000E+000	1.7543	32.6501	88.2457	-0.656961
10837.3	0.0997619	0.000583127	0.0997636	-0.334901	105291	-0.00108962	-7.03129	25184.6	0.860436	2	37	0.00514709	0.0515929	0	-3.23468	7	0.349344	0.214915	5.51569	8.76179e-06	7.59771e-06	6.03077e-06	4.52157e-06	3.70712e-06	9.86812e-06	0.156508	0.0350353	0.409636	6.98528e-06	4.81606e-05	4.23939e-06	7.24509e-06	5.77633e-06	6.33962e-05	10.0235	0.0585894	10.0237	0.334901	860.433	147204	147207	-89.6651	0.0000000E+000	0.0000000E+000	0.0000000E+000	89.6651	0.0000000E+000	0.0000000E+000	0.0000000E+000	-89.6651	0.0000000E+000	0.0000000E+000	0.0000000E+000	-0.334901	0.0000000E+000	0.0000000E+000	0.0000000E+000	0.334901	171.081	89.6651	-0.00218442
423.239	0.104723	0.00251188	0.104753	-1.37403	105309	-0.00117865	-7.66641	149705	86.08	2	37	0.00514409	0.049107	0	-3.27351	7	0.260708	0.156537	5.44458	4.87138e-06	5.90513e-06	5.7193e-06	4.90729e-06	4.5888e-06	3.93735e-06	0.055203	0.0116947	0.445097	8.87397e-06	1.87049e-05	3.32848e-06	1.41229e-05	6.01285e-06	6.12193e-06	9.54354	0.228912	9.54628	1.37403	86079.7	3.58875e+06	3.58979e+06	-88.626	0.0000000E+000	0.0000000E+000	0.0000000E+000	88.626	0.0000000E+000	0.0000000E+000	0.0000000E+000	-88.626	0.0000000E+000	0.0000000E+000	0.0000000E+000	-1.37403	0.0000000E+000	0.0000000E+000	0.0000000E+000	1.37403	41.6909	88.626	-0.00273119
16.5286	0.109508	0.00298821	0.109549	-1.56307	105325	-0.00116811	-7.64123	3.22235e+06	2397.61	2	37	0.00543716	0.0496322	0	-3.30632	7	0.246017	0.134375	5.19202	4.17701e-06	3.1375e-06	6.26755e-06	8.3127e-06	5.08246e-06	2.77561e-06	0.1427	0.0659035	0.406581	8.37099e-06	5.57035e-05	9.97929e-06	3.41045e-05	1.05953e-05	1.17379e-05	9.12494	0.248997	9.12833	1.56307	2.39761e+06	8.78646e+07	8.78973e+07	-88.4369	0.0000000E+000	0.0000000E+000	0.0000000E+000	88.4369	0.0000000E+000	0.0000000E+000	0.0000000E+000	-88.4369	0.0000000E+000	0.0000000E+000	0.0000000E+000	-1.56307	0.0000000E+000	0.0000000E+000	0.0000000E+000	1.56307	36.6467	88.4369	-0.00200031
0.645874	0.120398	0.0128835	0.121086	-6.10784	105374	-0.00116537	-7.65329	1.91266e+07	216532	2	37	0.00542873	0.0448338	0	-3.40968	7	0.106949	0.0403056	0.973438	1.93268e-06	3.00363e-06	4.40935e-07	3.85002e-06	1.8743e-06	1.04517e-06	0.12656	0.134767	0.277929	1.91671e-05	3.45624e-05	1.03817e-05	3.44224e-05	7.22842e-06	4.68705e-06	8.21174	0.878718	8.25862	6.10784	2.16532e+08	2.02352e+09	2.03507e+09	-83.8922	0.0000000E+000	0.0000000E+000	0.0000000E+000	83.8922	0.0000000E+000	0.0000000E+000	0.0000000E+000	-83.8922	0.0000000E+000	0.0000000E+000	0.0000000E+000	-6.10784	0.0000000E+000	0.0000000E+000	0.0000000E+000	6.10784	9.34513	83.8922	-0.0202293
0.0252177	0.157296	0.0060423	0.157413	-2.19985	106504	-0.00117981	-7.70545	1.04451e+09	1.539e+06	2	37	0.00541475	0.0343985	0	-5.89421	7	0.118904	0.0785078	0.234331	2.50663e-06	3.95501e-06	1.45941e-06	3.77669e-06	1.3502e-06	7.35363e-07	0.147923	0.134954	0.320567	1.80678e-05	3.24176e-05	6.28998e-06	3.28755e-05	4.17375e-06	4.52904e-06	6.34805	0.24385	6.35274	2.19985	1.539e+09	4.00641e+10	4.00937e+10	-87.8002	0.0000000E+000	0.0000000E+000	0.0000000E+000	87.8002	0.0000000E+000	0.0000000E+000	0.0000000E+000	-87.8002	0.0000000E+000	0.0000000E+000	0.0000000E+000	-2.19985	0.0000000E+000	0.0000000E+000	0.0000000E+000	2.19985	26.0326	87.8002	-0.547403
13658	0.0995437	0.000280259	0.0995441	-0.161312	106825	-0.00109935	-7.19605	41579.1	0.329581	3	37	0.0051612	0.0518484	0	-6.57764	7	0.33168	0.174223	5.4969	8.40446e-06	6.1202e-06	7.16905e-06	4.46239e-06	7.34711e-06	5.57136e-06	0.0981053	0.017695	0.412285	5.5748e-06	4.92446e-05	2.23979e-06	9.56085e-06	2.29134e-06	4.05326e-06	10.0458	0.0282832	10.0458	0.161312	329.589	117062	117063	-89.8387	0.0000000E+000	0.0000000E+000	0.0000000E+000	89.8387	0.0000000E+000	0.0000000E+000	0.0000000E+000	-89.8387	0.0000000E+000	0.0000000E+000	0.0000000E+000	-0.161312	0.0000000E+000	0.0000000E+000	0.0000000E+000	0.161312	355.185	89.8387	-0.00222676
533.464	0.104308	0.0025862	0.10434	-1.4203	106843	-0.00120907	-7.85848	115359	70.8726	3	37	0.00506219	0.0485165	0	-6.61688	7	0.27782	0.141417	5.55322	4.29233e-06	4.19693e-06	7.41272e-06	4.70137e-06	5.27376e-06	4.74186e-06	0.0432167	0.0104109	0.454555	5.28271e-06	1.39299e-05	4.53031e-06	1.11678e-05	4.59527e-06	5.99995e-06	9.58113	0.237555	9.58408	1.4203	70872.8	2.85846e+06	2.85934e+06	-88.5797	0.0000000E+000	0.0000000E+000	0.0000000E+000	88.5797	0.0000000E+000	0.0000000E+000	0.0000000E+000	-88.5797	0.0000000E+000	0.0000000E+000	0.0000000E+000	-1.4203	0.0000000E+000	0.0000000E+000	0.0000000E+000	1.4203	40.3323	88.5797	-0.00296093
20.8333	0.109189	0.00285418	0.109227	-1.49736	106859	-0.001218	-8.00417	2.67658e+06	1827.62	3	37	0.00543973	0.0498022	0	-6.65189	7	0.322808	0.093292	5.21368	6.28565e-06	3.88636e-06	8.94526e-06	7.15914e-06	9.82113e-06	2.81725e-06	0.122434	0.105583	0.423106	1.38347e-05	3.93693e-05	7.04676e-06	3.89093e-05	7.79003e-06	1.67974e-05	9.15214	0.239235	9.15527	1.49736	1.82762e+06	6.99173e+07	6.99412e+07	-88.5026	0.0000000E+000	0.0000000E+000	0.0000000E+000	88.5026	0.0000000E+000	0.0000000E+000	0.0000000E+000	-88.5026	0.0000000E+000	0.0000000E+000	0.0000000E+000	-1.49736	0.0000000E+000	0.0000000E+000	0.0000000E+000	1.49736	38.2559	88.5026	-0.00249626
0.813551	0.118694	0.011468	0.119247	-5.51869	106900	-0.00122036	-7.9962	1.70588e+07	157772	3	37	0.005432	0.0455527	0	-6.74114	7	0.122775	0.0601548	1.09498	3.21908e-06	2.44961e-06	1.02168e-06	4.64511e-06	1.47775e-06	1.30622e-06	0.148134	0.220312	0.289067	1.68257e-05	3.59114e-05	2.09901e-05	4.43475e-05	8.28309e-06	9.28631e-06	8.34711	0.806483	8.38598	5.51869	1.57772e+08	1.63294e+09	1.64055e+09	-84.4813	0.0000000E+000	0.0000000E+000	0.0000000E+000	84.4813	0.0000000E+000	0.0000000E+000	0.0000000E+000	-84.4813	0.0000000E+000	0.0000000E+000	0.0000000E+000	-5.51869	0.0000000E+000	0.0000000E+000	0.0000000E+000	5.51869	10.35	84.4813	-0.0143541
0.0317924	0.15695	0.00753325	0.157131	-2.74796	107797	-0.00116038	-7.70906	6.64529e+08	1.52741e+06	3	37	0.00541631	0.0344701	0	-8.68705	7	0.121794	0.152623	0.256543	1.86858e-06	3.69444e-06	1.22394e-06	4.01118e-06	1.97586e-06	1.01564e-06	0.155294	0.246669	0.476343	2.13303e-05	3.10149e-05	7.35224e-06	3.32297e-05	8.52825e-06	9.58463e-06	6.35681	0.305112	6.36413	2.74796	1.52741e+09	3.18226e+10	3.18592e+10	-87.252	0.0000000E+000	0.0000000E+000	0.0000000E+000	87.252	0.0000000E+000	0.0000000E+000	0.0000000E+000	-87.252	0.0000000E+000	0.0000000E+000	0.0000000E+000	-2.74796	0.0000000E+000	0.0000000E+000	0.0000000E+000	2.74796	20.8343	87.252	-0.439947
0.0199946	0.15809	0.00489166	0.158166	-1.77229	108345	-0.00117269	-7.58941	1.62724e+09	1.55646e+06	3	37	0.00541414	0.0342307	0	-9.89199	7	0.116855	0.135608	0.224711	2.11397e-06	3.76564e-06	1.58704e-06	3.65134e-06	9.85951e-07	7.63679e-07	0.143939	0.142594	0.40549	1.01889e-05	3.46205e-05	8.95299e-06	2.93582e-05	4.00898e-06	2.37133e-06	6.31944	0.195537	6.32246	1.77229	1.55646e+09	5.03021e+10	5.03262e+10	-88.2277	0.0000000E+000	0.0000000E+000	0.0000000E+000	88.2277	0.0000000E+000	0.0000000E+000	0.0000000E+000	-88.2277	0.0000000E+000	0.0000000E+000	0.0000000E+000	-1.77229	0.0000000E+000	0.0000000E+000	0.0000000E+000	1.77229	32.3184	88.2277	-0.653319