File: Python/Experiments/IRFB/240515-Paper-1p5M_FeCl2FeCl3-1M_HCl/Data/240515-EIS-Paper-1p5M_FeCl2FeCl3-1M_HCl-Wamup_10mLmin-4xFlowRate-20mHz_10ppd_02_PEIS_C15.mpt
EC-Lab ASCII FILE
Nb header lines : 75

Potentio Electrochemical Impedance Spectroscopy

Run on channel : 15 (SN 19485)
User :
Electrode connection : standard
Potential control : Ewe
Ewe ctrl range : min = -1.00 V, max = 1.00 V
Ewe,I filtering : 50 kHz
Safety Limits :
	Do not start on E overload
Channel : Grounded
Acquisition started on : 05/15/2024 11:35:32.904
Loaded Setting File :  C:\Data\mathias\IRFB\240507-EIS-Cloth-1p5M_FeCl2FeCl3-1M_HCl-Wamup_10mLmin-4xFlowRate-20mHz_10ppd.mps
Saved on :
	File : 240515-EIS-Paper-1p5M_FeCl2FeCl3-1M_HCl-Wamup_10mLmin-4xFlowRate-20mHz_10ppd_02_PEIS_C15.mpr
	Directory : C:\Data\mathias\IRFB\
	Host : 192.168.0.1
Device : VMP-300 (SN 0826)
Address : USB
EC-Lab for windows v11.52 (software)
Internet server v11.52 (firmware)
Command interpretor v11.52 (firmware)
Electrode material :
Initial state :
Electrolyte :
Comments :
Cable : special
Electrode surface area : 0.001 cm²
Characteristic mass : 0.001 g
Equivalent Weight : 0.000 g/eq.
Density : 0.000 g/cm3
Volume (V) : 0.001 cm³
Record EIS quality indicators
Cycle Definition : Charge/Discharge alternance
External device configuration :
   device type : Other
   device name : Other
   Analog OUT :
      mode : E/V
      unit : KNF Pump/ml/min
      max : 120.000 at 5.000 V
      min : 0.000 at 0.000 V
      current : 3.400
Mode                Single sine
E (V)               0.0000
vs.                 Eoc
tE (h:m:s)          0:00:0.0000
record              0
dI                  0.000
unit dI             mA
dt (s)              0.000
fi                  220.000
unit fi             kHz
ff                  20.000
unit ff             mHz
Nd                  10
Points              per decade
spacing             Logarithmic
Va (mV)             5.0
pw                  0.10
Na                  3
corr                0
E range min (V)     -1.000
E range max (V)     1.000
I Range             Auto
Bandwidth           8
nc cycles           59
goto Ns'            0
nr cycles           0
inc. cycle          0

freq/Hz	Re(Z)/Ohm	-Im(Z)/Ohm	|Z|/Ohm	Phase(Z)/deg	time/s	<Ewe>/V	<I>/mA	Cs/µF	Cp/µF	cycle number	I Range	|Ewe|/V	|I|/A	Ns	(Q-Qo)/mA.h	Analog OUT/V	THD Ewe/%	NSD Ewe/%	NSR Ewe/%	|Ewe h2|/V	|Ewe h3|/V	|Ewe h4|/V	|Ewe h5|/V	|Ewe h6|/V	|Ewe h7|/V	THD I/%	NSD I/%	NSR I/%	|I h2|/A	|I h3|/A	|I h4|/A	|I h5|/A	|I h6|/A	|I h7|/A	Re(Y)/Ohm-1	Im(Y)/Ohm-1	|Y|/Ohm-1	Phase(Y)/deg	Re(C)/nF	Im(C)/nF	|C|/nF	Phase(C)/deg	Re(M)	Im(M)	|M|	Phase(M)/deg	Re(Permittivity)	Im(Permittivity)	|Permittivity|	Phase(Permittivity)/deg	Re(Resistivity)/Ohm.cm	Im(Resistivity)/Ohm.cm	|Resistivity|/Ohm.cm	Phase(Resistivity)/deg	Re(Conductivity)/mS/cm	Im(Conductivity)/mS/cm	|Conductivity|/mS/cm	Phase(Conductivity)/deg	Tan(Delta)	Loss Angle(Delta)/deg	dq/mA.h
220003	0.102374	-0.0119434	0.103068	6.65432	601.661	-0.00110056	-4.53697	-60.5709	-0.81334	1	37	0.00361437	0.0350677	0	-0.00213302	3.4	-1	-1	-1	0	0	0	0	0	0	-1	-1	-1	0	0	0	0	0	0	9.63696	-1.12429	9.70232	-6.65432	-813.339	6971.6	7018.88	-96.6543	0.0000000E+000	0.0000000E+000	0.0000000E+000	96.6543	0.0000000E+000	0.0000000E+000	0.0000000E+000	-96.6543	0.0000000E+000	0.0000000E+000	0.0000000E+000	6.65432	0.0000000E+000	0.0000000E+000	0.0000000E+000	-6.65432	8.57157	83.3457	-0.00213302
0.322118	0.125678	0.0209802	0.127417	-9.47738	5353.27	-0.00116909	-4.68413	2.35502e+07	638500	4	37	0.00542609	0.0425853	0	-6.51262	3.4	0.121632	0.0680551	0.696904	2.51348e-06	4.10637e-06	1.28531e-06	3.74873e-06	1.62145e-06	8.73258e-07	0.383766	1.25984	0.48058	0.000111178	6.44431e-05	4.95509e-05	6.39026e-05	3.03481e-05	3.39247e-05	7.74113	1.29228	7.84825	9.47738	6.38499e+08	3.8248e+09	3.87773e+09	-80.5226	0.0000000E+000	0.0000000E+000	0.0000000E+000	80.5226	0.0000000E+000	0.0000000E+000	0.0000000E+000	-80.5226	0.0000000E+000	0.0000000E+000	0.0000000E+000	-9.47738	0.0000000E+000	0.0000000E+000	0.0000000E+000	9.47738	5.99029	80.5226	-0.0316964
6.54313	0.109369	0.00465145	0.109468	-2.43532	11403.4	-0.00119302	-4.82336	5.22933e+06	9441.72	8	37	0.00544243	0.0497172	0	-14.9166	3.4	0.242693	0.129996	3.67486	4.81784e-06	3.70658e-06	4.213e-06	5.56224e-06	6.62997e-06	4.09675e-06	0.144267	0.107352	0.342087	4.42821e-05	3.59087e-05	7.88263e-06	3.81334e-05	7.20324e-06	1.18683e-05	9.12686	0.388165	9.13511	2.43532	9.44171e+06	2.22002e+08	2.22202e+08	-87.5647	0.0000000E+000	0.0000000E+000	0.0000000E+000	87.5647	0.0000000E+000	0.0000000E+000	0.0000000E+000	-87.5647	0.0000000E+000	0.0000000E+000	0.0000000E+000	-2.43532	0.0000000E+000	0.0000000E+000	0.0000000E+000	2.43532	23.5128	87.5647	-0.00218256
132.916	0.104692	0.0022785	0.104717	-1.24678	17530.3	-0.00115238	-5.47192	525524	248.805	12	37	0.00548402	0.05237	0	-23.9388	3.4	0.33371	0.113462	5.14905	4.94508e-06	8.01639e-06	6.29058e-06	6.07097e-06	9.76937e-06	5.01774e-06	0.0774246	0.0226179	0.419571	5.50056e-06	2.87736e-05	6.32333e-06	2.56144e-05	5.73758e-06	5.04841e-06	9.54731	0.207786	9.54957	1.24678	248805	1.1432e+07	1.14347e+07	-88.7532	0.0000000E+000	0.0000000E+000	0.0000000E+000	88.7532	0.0000000E+000	0.0000000E+000	0.0000000E+000	-88.7532	0.0000000E+000	0.0000000E+000	0.0000000E+000	-1.24678	0.0000000E+000	0.0000000E+000	0.0000000E+000	1.24678	45.9477	88.7532	-0.00166764
2699.14	0.100562	0.00202977	0.100583	-1.15632	23655.5	-0.00120167	-5.92525	29050.1	11.8303	16	37	0.00517091	0.0514096	0	-33.0762	3.4	0.344325	0.168871	5.54642	6.61089e-06	9.36037e-06	3.39038e-06	5.45017e-06	6.10805e-06	7.31005e-06	0.077819	0.0139235	0.426707	5.10363e-06	3.78207e-05	3.65908e-06	7.06569e-06	5.84179e-06	4.24484e-06	9.94005	0.200633	9.94208	1.15632	11830.4	586117	586236	-88.8437	0.0000000E+000	0.0000000E+000	0.0000000E+000	88.8437	0.0000000E+000	0.0000000E+000	0.0000000E+000	-88.8437	0.0000000E+000	0.0000000E+000	0.0000000E+000	-1.15632	0.0000000E+000	0.0000000E+000	0.0000000E+000	1.15632	49.5435	88.8437	-0.00213454
54808.1	0.0990075	-0.00335299	0.0990643	1.93964	29781.6	-0.00107499	-4.12571	-866.051	-0.992139	20	37	0.00519845	0.0524755	0	-42.2994	3.4	0.273145	0.184199	5.46876	4.77177e-06	8.03131e-06	5.50905e-06	3.53901e-06	5.49274e-06	5.02371e-06	0.115554	0.0519597	0.40085	5.77332e-06	5.92941e-05	5.00974e-06	6.36269e-06	3.51799e-06	5.35276e-06	10.0887	-0.341663	10.0945	-1.93964	-992.14	29296.1	29312.9	-91.9396	0.0000000E+000	0.0000000E+000	0.0000000E+000	91.9396	0.0000000E+000	0.0000000E+000	0.0000000E+000	-91.9396	0.0000000E+000	0.0000000E+000	0.0000000E+000	1.93964	0.0000000E+000	0.0000000E+000	0.0000000E+000	-1.93964	29.5282	88.0604	-0.00135885
0.0802383	0.151775	0.0413064	0.157296	-15.2246	34804.7	-0.00114644	-5.08509	4.80199e+07	3.31149e+06	23	37	0.00541462	0.0344232	0	-49.8392	3.4	0.124049	0.108872	0.371833	2.73025e-06	3.38574e-06	1.56218e-06	4.21055e-06	1.17692e-06	1.61343e-06	1.32872	3.59434	1.37417	0.000323169	0.000203105	0.000138757	0.00014318	8.77128e-05	6.70299e-05	6.13434	1.66949	6.35746	15.2246	3.31149e+09	1.21676e+10	1.26102e+10	-74.7754	0.0000000E+000	0.0000000E+000	0.0000000E+000	74.7754	0.0000000E+000	0.0000000E+000	0.0000000E+000	-74.7754	0.0000000E+000	0.0000000E+000	0.0000000E+000	-15.2246	0.0000000E+000	0.0000000E+000	0.0000000E+000	15.2246	3.67437	74.7754	-0.112872
1.63084	0.115653	0.00904028	0.116006	-4.46956	40592.5	-0.00113457	-4.96051	1.07951e+07	65558.9	27	37	0.00512497	0.0441785	0	-58.5638	3.4	0.151869	0.104125	1.66044	3.16141e-06	4.5494e-06	2.62527e-06	3.6377e-06	2.07098e-06	1.43686e-06	0.167605	0.260666	0.337286	3.82525e-05	4.06156e-05	1.69179e-05	3.32791e-05	1.79558e-05	1.20624e-05	8.59403	0.671771	8.62025	4.46956	6.55588e+07	8.38701e+08	8.41259e+08	-85.5304	0.0000000E+000	0.0000000E+000	0.0000000E+000	85.5304	0.0000000E+000	0.0000000E+000	0.0000000E+000	-85.5304	0.0000000E+000	0.0000000E+000	0.0000000E+000	-4.46956	0.0000000E+000	0.0000000E+000	0.0000000E+000	4.46956	12.7931	85.5304	-0.00631249
33.1038	0.108606	0.0026442	0.108638	-1.39469	46710.2	-0.00117123	-5.81541	1.81823e+06	1077.14	31	37	0.00543796	0.0500557	0	-67.7605	3.4	0.309593	0.127093	5.23574	7.64131e-06	7.17977e-06	6.99565e-06	6.85193e-06	4.9016e-06	4.56729e-06	0.121746	0.0254406	0.446064	9.40103e-06	3.72757e-05	5.53095e-06	4.46636e-05	7.368e-06	4.74449e-06	9.20215	0.224043	9.20488	1.39469	1.07714e+06	4.42417e+07	4.42548e+07	-88.6053	0.0000000E+000	0.0000000E+000	0.0000000E+000	88.6053	0.0000000E+000	0.0000000E+000	0.0000000E+000	-88.6053	0.0000000E+000	0.0000000E+000	0.0000000E+000	-1.39469	0.0000000E+000	0.0000000E+000	0.0000000E+000	1.39469	41.0733	88.6053	-0.0016994
672.366	0.104207	0.00251285	0.104238	-1.38136	52836.5	-0.00114722	-5.04779	94199.4	54.7434	35	37	0.00515583	0.0494623	0	-76.8396	3.4	0.308092	0.189636	5.42148	5.12872e-06	7.0875e-06	4.17729e-06	6.7366e-06	7.68222e-06	4.69207e-06	0.0315586	0.0160161	0.45209	5.30575e-06	4.84436e-06	2.86924e-06	1.24206e-05	3.37072e-06	3.62438e-06	9.59068	0.231269	9.59347	1.38136	54743.2	2.2702e+06	2.27086e+06	-88.6186	0.0000000E+000	0.0000000E+000	0.0000000E+000	88.6186	0.0000000E+000	0.0000000E+000	0.0000000E+000	-88.6186	0.0000000E+000	0.0000000E+000	0.0000000E+000	-1.38136	0.0000000E+000	0.0000000E+000	0.0000000E+000	1.38136	41.4698	88.6186	-0.00203551
13658	0.100452	0.000215027	0.100452	-0.122647	58961.3	-0.00106007	-4.57251	54192.8	0.248319	39	37	0.00515466	0.0513146	0	-85.9034	3.4	0.366931	0.160131	5.51764	4.86274e-06	9.56751e-06	3.05589e-06	8.64509e-06	9.78244e-06	4.30117e-06	0.110154	0.0125627	0.427258	5.89094e-06	5.52747e-05	4.49051e-06	7.15555e-06	2.53695e-06	2.87695e-06	9.95497	0.0213096	9.955	0.122647	248.325	116004	116005	-89.8774	0.0000000E+000	0.0000000E+000	0.0000000E+000	89.8774	0.0000000E+000	0.0000000E+000	0.0000000E+000	-89.8774	0.0000000E+000	0.0000000E+000	0.0000000E+000	-0.122647	0.0000000E+000	0.0000000E+000	0.0000000E+000	0.122647	467.159	89.8774	-0.00154295
0.0199946	0.208926	0.0363483	0.212064	-9.86937	65087.8	-0.00114818	-5.30132	2.1899e+08	6.43365e+06	42	37	0.00540179	0.0254725	0	-95.0454	3.4	0.130053	0.127515	0.22308	3.4997e-06	3.34075e-06	1.97087e-06	3.8413e-06	1.49211e-06	1.0909e-06	3.96638	0.382685	4.76372	8.54763e-05	0.000113671	0.000678747	0.000452014	0.000569733	9.90195e-05	4.64577	0.808259	4.71556	9.86937	6.43365e+09	3.69799e+10	3.75354e+10	-80.1306	0.0000000E+000	0.0000000E+000	0.0000000E+000	80.1306	0.0000000E+000	0.0000000E+000	0.0000000E+000	-80.1306	0.0000000E+000	0.0000000E+000	0.0000000E+000	-9.86937	0.0000000E+000	0.0000000E+000	0.0000000E+000	9.86937	5.74788	80.1306	-0.436987
0.406108	0.125367	0.0187847	0.126767	-8.52164	69821.2	-0.00114811	-5.21408	2.08629e+07	458111	46	37	0.00542675	0.0428089	0	-102.087	3.4	0.119328	0.0734125	0.783207	3.2181e-06	3.47232e-06	8.40579e-07	2.76582e-06	2.40404e-06	1.59565e-06	0.223023	1.23304	0.35298	6.34614e-05	4.11114e-05	2.37412e-05	4.07695e-05	1.62618e-05	1.69849e-05	7.8014	1.16894	7.88849	8.52164	4.58111e+08	3.05739e+09	3.09152e+09	-81.4784	0.0000000E+000	0.0000000E+000	0.0000000E+000	81.4784	0.0000000E+000	0.0000000E+000	0.0000000E+000	-81.4784	0.0000000E+000	0.0000000E+000	0.0000000E+000	-8.52164	0.0000000E+000	0.0000000E+000	0.0000000E+000	8.52164	6.67391	81.4784	-0.0274674
8.24973	0.111323	0.00383289	0.111389	-1.97192	75889	-0.00117827	-5.8378	5.03332e+06	5959.62	50	37	0.00543945	0.0488327	0	-111.305	3.4	0.198794	0.134978	3.65505	4.63287e-06	4.77909e-06	4.44372e-06	3.94439e-06	3.67857e-06	3.5652e-06	0.187153	0.0796605	0.32329	4.47014e-05	3.51852e-05	7.68203e-06	3.98977e-05	5.70956e-05	1.01147e-05	8.97219	0.308914	8.97751	1.97192	5.95961e+06	1.73093e+08	1.73195e+08	-88.0281	0.0000000E+000	0.0000000E+000	0.0000000E+000	88.0281	0.0000000E+000	0.0000000E+000	0.0000000E+000	-88.0281	0.0000000E+000	0.0000000E+000	0.0000000E+000	-1.97192	0.0000000E+000	0.0000000E+000	0.0000000E+000	1.97192	29.0443	88.0281	-0.00148083
167.481	0.106217	0.00227034	0.106241	-1.22449	82016.2	-0.00117555	-4.89091	418567	191.145	54	37	0.00527321	0.0496345	0	-120.596	3.4	0.331327	0.111285	5.39038	5.04875e-06	7.87201e-06	4.91067e-06	7.56522e-06	7.19803e-06	6.50086e-06	0.0742269	0.0203514	0.449405	5.99721e-06	2.77645e-05	3.07746e-06	2.16553e-05	4.9998e-06	4.84037e-06	9.41043	0.201144	9.41257	1.22449	191145	8.94261e+06	8.94465e+06	-88.7755	0.0000000E+000	0.0000000E+000	0.0000000E+000	88.7755	0.0000000E+000	0.0000000E+000	0.0000000E+000	-88.7755	0.0000000E+000	0.0000000E+000	0.0000000E+000	-1.22449	0.0000000E+000	0.0000000E+000	0.0000000E+000	1.22449	46.7845	88.7755	-0.00155263
3403.27	0.100809	0.00184631	0.100826	-1.04925	88141.2	-0.00121429	-5.37857	25329.1	8.4935	58	37	0.00515266	0.0511047	0	-129.89	3.4	0.406159	0.171409	5.52887	5.22239e-06	1.41114e-05	5.79558e-06	5.23455e-06	6.85924e-06	8.40014e-06	0.0829854	0.0496927	0.429373	4.30712e-06	4.01263e-05	1.62921e-06	9.64013e-06	5.09584e-06	3.20625e-06	9.91645	0.18162	9.91811	1.04925	8493.51	463746	463824	-88.9507	0.0000000E+000	0.0000000E+000	0.0000000E+000	88.9507	0.0000000E+000	0.0000000E+000	0.0000000E+000	-88.9507	0.0000000E+000	0.0000000E+000	0.0000000E+000	-1.04925	0.0000000E+000	0.0000000E+000	0.0000000E+000	1.04925	54.6001	88.9507	-0.00194614
0.0199946	0.207409	0.036226	0.210549	-9.90734	92725.1	-0.00115361	-5.48392	2.19729e+08	6.50464e+06	60	37	0.00539821	0.0256388	0	-136.824	3.4	0.109762	0.0956432	0.224212	1.60138e-06	3.37916e-06	1.42737e-06	3.83603e-06	1.59344e-06	6.21688e-07	3.81741	0.241687	4.58814	6.17373e-05	0.000126732	0.000657647	0.000430499	0.000556646	9.75058e-05	4.67867	0.817176	4.7495	9.90734	6.50464e+09	3.72417e+10	3.78055e+10	-80.0927	0.0000000E+000	0.0000000E+000	0.0000000E+000	80.0927	0.0000000E+000	0.0000000E+000	0.0000000E+000	-80.0927	0.0000000E+000	0.0000000E+000	0.0000000E+000	-9.90734	0.0000000E+000	0.0000000E+000	0.0000000E+000	9.90734	5.72541	80.0927	-0.451566