File: Python/Experiments/IRFB/240515-Paper-1p5M_FeCl2FeCl3-1M_HCl/Data/240515-EIS-Paper-1p5M_FeCl2FeCl3-1M_HCl-Wamup_10mLmin-4xFlowRate-20mHz_10ppd_05_PEIS_C15.mpt
EC-Lab ASCII FILE
Nb header lines : 75

Potentio Electrochemical Impedance Spectroscopy

Run on channel : 15 (SN 19485)
User :
Electrode connection : standard
Potential control : Ewe
Ewe ctrl range : min = -1.00 V, max = 1.00 V
Ewe,I filtering : 50 kHz
Safety Limits :
	Do not start on E overload
Channel : Grounded
Acquisition started on : 05/15/2024 11:35:32.904
Loaded Setting File :  C:\Data\mathias\IRFB\240507-EIS-Cloth-1p5M_FeCl2FeCl3-1M_HCl-Wamup_10mLmin-4xFlowRate-20mHz_10ppd.mps
Saved on :
	File : 240515-EIS-Paper-1p5M_FeCl2FeCl3-1M_HCl-Wamup_10mLmin-4xFlowRate-20mHz_10ppd_05_PEIS_C15.mpr
	Directory : C:\Data\mathias\IRFB\
	Host : 192.168.0.1
Device : VMP-300 (SN 0826)
Address : USB
EC-Lab for windows v11.52 (software)
Internet server v11.52 (firmware)
Command interpretor v11.52 (firmware)
Electrode material :
Initial state :
Electrolyte :
Comments :
Cable : special
Electrode surface area : 0.001 cm²
Characteristic mass : 0.001 g
Equivalent Weight : 0.000 g/eq.
Density : 0.000 g/cm3
Volume (V) : 0.001 cm³
Record EIS quality indicators
Cycle Definition : Charge/Discharge alternance
External device configuration :
   device type : Other
   device name : Other
   Analog OUT :
      mode : E/V
      unit : KNF Pump/ml/min
      max : 120.000 at 5.000 V
      min : 0.000 at 0.000 V
      current : 3.400
Mode                Single sine
E (V)               0.0000
vs.                 Eoc
tE (h:m:s)          0:00:0.0000
record              0
dI                  0.000
unit dI             mA
dt (s)              0.000
fi                  220.000
unit fi             kHz
ff                  20.000
unit ff             mHz
Nd                  10
Points              per decade
spacing             Logarithmic
Va (mV)             5.0
pw                  0.10
Na                  3
corr                0
E range min (V)     -1.000
E range max (V)     1.000
I Range             Auto
Bandwidth           8
nc cycles           2
goto Ns'            0
nr cycles           0
inc. cycle          0

freq/Hz	Re(Z)/Ohm	-Im(Z)/Ohm	|Z|/Ohm	Phase(Z)/deg	time/s	<Ewe>/V	<I>/mA	Cs/µF	Cp/µF	cycle number	I Range	|Ewe|/V	|I|/A	Ns	(Q-Qo)/mA.h	Analog OUT/V	THD Ewe/%	NSD Ewe/%	NSR Ewe/%	|Ewe h2|/V	|Ewe h3|/V	|Ewe h4|/V	|Ewe h5|/V	|Ewe h6|/V	|Ewe h7|/V	THD I/%	NSD I/%	NSR I/%	|I h2|/A	|I h3|/A	|I h4|/A	|I h5|/A	|I h6|/A	|I h7|/A	Re(Y)/Ohm-1	Im(Y)/Ohm-1	|Y|/Ohm-1	Phase(Y)/deg	Re(C)/nF	Im(C)/nF	|C|/nF	Phase(C)/deg	Re(M)	Im(M)	|M|	Phase(M)/deg	Re(Permittivity)	Im(Permittivity)	|Permittivity|	Phase(Permittivity)/deg	Re(Resistivity)/Ohm.cm	Im(Resistivity)/Ohm.cm	|Resistivity|/Ohm.cm	Phase(Resistivity)/deg	Re(Conductivity)/mS/cm	Im(Conductivity)/mS/cm	|Conductivity|/mS/cm	Phase(Conductivity)/deg	Tan(Delta)	Loss Angle(Delta)/deg	dq/mA.h
220003	0.0955063	-0.0120287	0.0962608	7.1784	98533.4	-0.00109648	-7.3331	-60.1415	-0.939099	1	37	0.00338463	0.035161	0	-0.00339527	4.6	-1	-1	-1	0	0	0	0	0	0	-1	-1	-1	0	0	0	0	0	0	10.307	-1.29813	10.3885	-7.1784	-939.1	7456.34	7515.24	-97.1784	0.0000000E+000	0.0000000E+000	0.0000000E+000	97.1784	0.0000000E+000	0.0000000E+000	0.0000000E+000	-97.1784	0.0000000E+000	0.0000000E+000	0.0000000E+000	7.1784	0.0000000E+000	0.0000000E+000	0.0000000E+000	-7.1784	7.93988	82.8216	-0.00339527
8590.41	0.10003	0.000880781	0.100033	-0.504488	98549.4	-0.00121658	-6.97912	21034.8	1.63074	1	37	0.00524878	0.0524703	0	-0.0322264	4.6	0.293857	0.131293	5.37106	6.05658e-06	6.33626e-06	2.52693e-06	6.50552e-06	7.65932e-06	5.5648e-06	0.118219	0.0599667	0.415364	6.30548e-06	6.03953e-05	5.47378e-06	1.01778e-05	2.54608e-06	2.31925e-06	9.99627	0.0880192	9.99666	0.504488	1630.73	185201	185209	-89.4955	0.0000000E+000	0.0000000E+000	0.0000000E+000	89.4955	0.0000000E+000	0.0000000E+000	0.0000000E+000	-89.4955	0.0000000E+000	0.0000000E+000	0.0000000E+000	-0.504488	0.0000000E+000	0.0000000E+000	0.0000000E+000	0.504488	113.569	89.4955	-0.00228503
335.537	0.105148	0.0024198	0.105176	-1.31833	98567.6	-0.00117852	-6.94953	196020	103.759	1	37	0.00535577	0.050922	0	-0.0676861	4.6	0.292759	0.146872	5.27386	5.2145e-06	5.41757e-06	3.39863e-06	7.05958e-06	4.76109e-06	8.65459e-06	0.0573552	0.0123488	0.429073	1.46589e-05	1.7892e-05	4.30498e-06	1.64885e-05	3.87192e-06	2.79044e-06	9.50535	0.218749	9.50787	1.31833	103759	4.50867e+06	4.50986e+06	-88.6817	0.0000000E+000	0.0000000E+000	0.0000000E+000	88.6817	0.0000000E+000	0.0000000E+000	0.0000000E+000	-88.6817	0.0000000E+000	0.0000000E+000	0.0000000E+000	-1.31833	0.0000000E+000	0.0000000E+000	0.0000000E+000	1.31833	43.4533	88.6817	-0.00211936
13.1083	0.109887	0.00334906	0.109938	-1.74568	98583.4	-0.00117613	-6.6789	3.62537e+06	3364.35	1	37	0.00543923	0.0494753	0	-0.0979551	4.6	0.214053	0.144829	3.68342	5.29781e-06	5.18414e-06	5.04766e-06	2.90441e-06	5.18905e-06	2.39109e-06	0.137875	0.104107	0.338772	1.04083e-05	4.79671e-05	3.36512e-05	3.08788e-05	5.85795e-06	7.73028e-06	9.0918	0.277093	9.09602	1.74568	3.36436e+06	1.10389e+08	1.1044e+08	-88.2543	0.0000000E+000	0.0000000E+000	0.0000000E+000	88.2543	0.0000000E+000	0.0000000E+000	0.0000000E+000	-88.2543	0.0000000E+000	0.0000000E+000	0.0000000E+000	-1.74568	0.0000000E+000	0.0000000E+000	0.0000000E+000	1.74568	32.8113	88.2543	-0.00192786
0.511825	0.122178	0.0154732	0.123154	-7.21779	98644.1	-0.0011586	-6.84232	2.00964e+07	317237	1	37	0.00542694	0.0440665	0	-0.211975	4.6	0.117941	0.0772677	0.883709	2.66585e-06	2.45851e-06	1.79332e-06	3.75189e-06	1.82962e-06	1.76579e-06	0.154513	0.794744	0.305877	3.37534e-05	1.99631e-05	1.95184e-05	4.49514e-05	5.81729e-06	1.06718e-05	8.0556	1.0202	8.11994	7.21779	3.17237e+08	2.50493e+09	2.52494e+09	-82.7822	0.0000000E+000	0.0000000E+000	0.0000000E+000	82.7822	0.0000000E+000	0.0000000E+000	0.0000000E+000	-82.7822	0.0000000E+000	0.0000000E+000	0.0000000E+000	-7.21779	0.0000000E+000	0.0000000E+000	0.0000000E+000	7.21779	7.89609	82.7822	-0.0179604
0.0199946	0.179929	0.0128843	0.18039	-4.09582	100068	-0.00117796	-6.53911	6.17797e+08	3.15169e+06	1	37	0.0054088	0.0299839	0	-2.77343	4.6	0.118846	0.105937	0.227437	2.02951e-06	3.67064e-06	1.93081e-06	3.96507e-06	1.70924e-06	5.30954e-07	0.16441	0.192138	2.58014	1.69045e-05	2.95014e-05	1.57257e-05	2.62899e-05	7.68618e-06	1.37173e-05	5.52938	0.395946	5.54354	4.09582	3.15169e+09	4.40133e+10	4.4126e+10	-85.9042	0.0000000E+000	0.0000000E+000	0.0000000E+000	85.9042	0.0000000E+000	0.0000000E+000	0.0000000E+000	-85.9042	0.0000000E+000	0.0000000E+000	0.0000000E+000	-4.09582	0.0000000E+000	0.0000000E+000	0.0000000E+000	4.09582	13.965	85.9042	-0.540642
10837.3	0.0999114	0.00064695	0.0999135	-0.370999	100084	-0.00107795	-5.81742	22700.1	0.951748	2	37	0.00514067	0.0514512	0	-2.80044	4.6	0.321205	0.20705	5.47774	6.72318e-06	4.56332e-06	5.98823e-06	7.38496e-06	6.08982e-06	5.05952e-06	0.151236	0.0255727	0.404217	6.96844e-06	4.43628e-05	5.57815e-06	5.97723e-06	6.69126e-06	6.25776e-05	10.0084	0.0648071	10.0087	0.370999	951.756	146983	146986	-89.629	0.0000000E+000	0.0000000E+000	0.0000000E+000	89.629	0.0000000E+000	0.0000000E+000	0.0000000E+000	-89.629	0.0000000E+000	0.0000000E+000	0.0000000E+000	-0.370999	0.0000000E+000	0.0000000E+000	0.0000000E+000	0.370999	154.434	89.629	-0.00186681
423.239	0.104907	0.00243613	0.104935	-1.33028	100102	-0.00117701	-6.30327	154360	83.1944	2	37	0.0050302	0.0479363	0	-2.8334	4.6	0.267832	0.198713	5.58665	4.61274e-06	3.76981e-06	6.46585e-06	6.15016e-06	6.05645e-06	2.45669e-06	0.0629148	0.00918535	0.454073	1.49786e-05	1.71235e-05	7.18837e-06	1.39047e-05	4.81925e-06	3.87448e-06	9.52714	0.221238	9.52971	1.33028	83194.4	3.58259e+06	3.58355e+06	-88.6697	0.0000000E+000	0.0000000E+000	0.0000000E+000	88.6697	0.0000000E+000	0.0000000E+000	0.0000000E+000	-88.6697	0.0000000E+000	0.0000000E+000	0.0000000E+000	-1.33028	0.0000000E+000	0.0000000E+000	0.0000000E+000	1.33028	43.0629	88.6697	-0.00222274
16.5286	0.109711	0.00300554	0.109752	-1.56923	100118	-0.00116785	-6.45231	3.20378e+06	2402.6	2	37	0.00512667	0.0467114	0	-2.86121	4.6	0.284674	0.147816	5.56169	4.26793e-06	8.66186e-06	6.51032e-06	6.13184e-06	2.24751e-06	4.31033e-06	0.13059	0.0584808	0.444441	5.57235e-06	4.53978e-05	5.0893e-06	3.67275e-05	8.47857e-06	6.13648e-06	9.10803	0.249515	9.11145	1.56923	2.4026e+06	8.77019e+07	8.77348e+07	-88.4308	0.0000000E+000	0.0000000E+000	0.0000000E+000	88.4308	0.0000000E+000	0.0000000E+000	0.0000000E+000	-88.4308	0.0000000E+000	0.0000000E+000	0.0000000E+000	-1.56923	0.0000000E+000	0.0000000E+000	0.0000000E+000	1.56923	36.5029	88.4308	-0.00163502
0.645874	0.120568	0.0140647	0.121386	-6.65364	100168	-0.00116478	-6.57903	1.75204e+07	235214	2	37	0.00512021	0.0421812	0	-2.94708	4.6	0.13732	0.0465273	1.03984	2.25741e-06	4.87691e-06	1.94006e-06	3.32214e-06	1.38704e-06	1.43607e-06	0.17661	0.623981	0.304552	2.29253e-05	5.18933e-05	1.21402e-05	4.13344e-05	1.03829e-05	1.29872e-05	8.18269	0.954534	8.23818	6.65364	2.35214e+08	2.01636e+09	2.03003e+09	-83.3464	0.0000000E+000	0.0000000E+000	0.0000000E+000	83.3464	0.0000000E+000	0.0000000E+000	0.0000000E+000	-83.3464	0.0000000E+000	0.0000000E+000	0.0000000E+000	-6.65364	0.0000000E+000	0.0000000E+000	0.0000000E+000	6.65364	8.57244	83.3464	-0.0146272
0.0252177	0.178721	0.0157081	0.17941	-5.02291	101298	-0.00118988	-6.43069	4.01783e+08	3.07995e+06	2	37	0.00510021	0.0284276	0	-5.02377	4.6	0.153393	0.153118	0.254845	4.05943e-06	4.34474e-06	1.51485e-06	3.57856e-06	1.82348e-06	7.09986e-07	1.3628	0.211482	1.93011	3.33671e-05	3.73205e-05	4.82223e-05	6.37928e-05	9.54111e-05	0.000361901	5.55241	0.48801	5.57381	5.02291	3.07995e+09	3.50426e+10	3.51777e+10	-84.9771	0.0000000E+000	0.0000000E+000	0.0000000E+000	84.9771	0.0000000E+000	0.0000000E+000	0.0000000E+000	-84.9771	0.0000000E+000	0.0000000E+000	0.0000000E+000	-5.02291	0.0000000E+000	0.0000000E+000	0.0000000E+000	5.02291	11.3777	84.9771	-0.46392
13658	0.0997501	0.000341896	0.0997507	-0.196382	101618	-0.00110008	-6.14775	34083.2	0.400402	3	37	0.00515241	0.0516529	0	-5.61848	4.6	0.334462	0.185146	5.50594	7.2617e-06	7.54275e-06	7.59577e-06	5.31506e-06	3.47684e-06	4.49349e-06	0.10689	0.0137279	0.423269	5.90515e-06	5.3357e-05	4.59232e-06	8.00248e-06	7.21794e-06	3.28804e-06	10.0249	0.0343607	10.025	0.196382	400.4	116820	116820	-89.8036	0.0000000E+000	0.0000000E+000	0.0000000E+000	89.8036	0.0000000E+000	0.0000000E+000	0.0000000E+000	-89.8036	0.0000000E+000	0.0000000E+000	0.0000000E+000	-0.196382	0.0000000E+000	0.0000000E+000	0.0000000E+000	0.196382	291.756	89.8036	-0.00184358
533.464	0.104531	0.00249846	0.104561	-1.3692	101636	-0.00118515	-6.48719	119411	68.1786	3	37	0.00507751	0.0485603	0	-5.65129	4.6	0.303159	0.128565	5.61325	7.58835e-06	6.56886e-06	5.42214e-06	5.77516e-06	6.26535e-06	5.22589e-06	0.0492801	0.0102554	0.441993	1.05193e-05	1.44243e-05	3.12758e-06	1.29328e-05	6.05611e-06	4.41108e-06	9.56107	0.228525	9.5638	1.3692	68178.8	2.85247e+06	2.85329e+06	-88.6308	0.0000000E+000	0.0000000E+000	0.0000000E+000	88.6308	0.0000000E+000	0.0000000E+000	0.0000000E+000	-88.6308	0.0000000E+000	0.0000000E+000	0.0000000E+000	-1.3692	0.0000000E+000	0.0000000E+000	0.0000000E+000	1.3692	41.8382	88.6308	-0.00239553
20.8333	0.109303	0.00294875	0.109343	-1.54534	101652	-0.00118388	-6.74203	2.59074e+06	1884.17	3	37	0.00543509	0.049707	0	-5.68065	4.6	0.259126	0.136447	5.19514	6.32931e-06	5.10276e-06	7.32769e-06	5.52433e-06	4.5082e-06	4.12343e-06	0.110668	0.105502	0.419734	9.02097e-06	3.64103e-05	3.26181e-06	3.64042e-05	6.32165e-06	1.45284e-05	9.14225	0.246637	9.14557	1.54534	1.88418e+06	6.98417e+07	6.98671e+07	-88.4547	0.0000000E+000	0.0000000E+000	0.0000000E+000	88.4547	0.0000000E+000	0.0000000E+000	0.0000000E+000	-88.4547	0.0000000E+000	0.0000000E+000	0.0000000E+000	-1.54534	0.0000000E+000	0.0000000E+000	0.0000000E+000	1.54534	37.0675	88.4547	-0.00215483
0.813551	0.118818	0.0124818	0.119471	-5.99693	101693	-0.0011937	-6.70783	1.56732e+07	171074	3	37	0.00543186	0.0454657	0	-5.75505	4.6	0.123972	0.0469817	1.11187	1.76148e-06	2.51273e-06	1.4655e-06	5.31254e-06	1.74076e-06	1.17161e-06	0.11754	0.534313	0.286895	1.46376e-05	2.31027e-05	1.15606e-05	4.06816e-05	5.71121e-06	1.03865e-05	8.3244	0.874478	8.3702	5.99693	1.71074e+08	1.6285e+09	1.63746e+09	-84.0031	0.0000000E+000	0.0000000E+000	0.0000000E+000	84.0031	0.0000000E+000	0.0000000E+000	0.0000000E+000	-84.0031	0.0000000E+000	0.0000000E+000	0.0000000E+000	-5.99693	0.0000000E+000	0.0000000E+000	0.0000000E+000	5.99693	9.51927	84.0031	-0.0122297
0.0317924	0.176429	0.0191415	0.177464	-6.19202	102591	-0.00119582	-6.53294	2.6153e+08	3.04263e+06	3	37	0.0054086	0.0304771	0	-7.41408	4.6	0.152115	0.102086	0.254	4.45898e-06	4.36999e-06	1.88616e-06	4.3164e-06	1.61245e-06	9.86707e-07	0.278901	0.187471	2.2028	1.31101e-05	2.89886e-05	1.46862e-05	1.62821e-05	5.60806e-05	4.92668e-05	5.60206	0.60779	5.63494	6.19202	3.04263e+09	2.80443e+10	2.82088e+10	-83.808	0.0000000E+000	0.0000000E+000	0.0000000E+000	83.808	0.0000000E+000	0.0000000E+000	0.0000000E+000	-83.808	0.0000000E+000	0.0000000E+000	0.0000000E+000	-6.19202	0.0000000E+000	0.0000000E+000	0.0000000E+000	6.19202	9.21711	83.808	-0.339033
0.0199946	0.180109	0.0129926	0.180577	-4.12603	103139	-0.00117246	-6.44567	6.12646e+08	3.1716e+06	3	37	0.00540587	0.0299366	0	-8.32752	4.6	0.1035	0.118921	0.220515	2.36853e-06	2.68972e-06	9.57481e-07	3.28372e-06	1.57128e-06	7.47031e-07	0.192336	0.175158	2.23862	1.93171e-05	2.27068e-05	1.05703e-05	3.79688e-05	1.90824e-05	2.02559e-05	5.52344	0.398448	5.5378	4.12603	3.1716e+09	4.3966e+10	4.40803e+10	-85.874	0.0000000E+000	0.0000000E+000	0.0000000E+000	85.874	0.0000000E+000	0.0000000E+000	0.0000000E+000	-85.874	0.0000000E+000	0.0000000E+000	0.0000000E+000	-4.12603	0.0000000E+000	0.0000000E+000	0.0000000E+000	4.12603	13.8624	85.874	-0.506915