File: Python/ImpedanceDataOld/dual layer tests _vanadium positive side single-tank symmetric cell_1.6 M total vanadium_ve=5cms_choose the cycle number=3/dual-layer_ELAT-H carbon cloth + Freudenberg H23 carbon paper.mpt
EC-Lab ASCII FILE
Nb header lines : 66

Potentio Electrochemical Impedance Spectroscopy

Run on channel : 1 (SN 5680)
User :
Electrode connection : standard
Potential control : Ewe
Ewe ctrl range : min = 0.00 V, max = 5.00 V
Ewe,I filtering : <None>
Safety Limits :
	Do not start on E overload
Channel : Floating
Acquisition started on : 06/29/2023 23:52:53.281
Loaded Setting File :  C:\Data\baili\Electrode Combination Tests\20230622\new tests\positive\ELATvers_ve5_30mL_EIS_C01.mpr
Saved on :
	File : ELAT_FrePaper_ve5_30mL_EIS_C01.mpr
	Directory : C:\Data\baili\Electrode Combination Tests\20230622\new tests\positive\
	Host : 192.168.0.1
Device : SP-300 (SN 0955)
Address : 192.168.0.4
EC-Lab for windows v11.46 (software)
Internet server v11.40 (firmware)
Command interpretor v11.46 (firmware)
Electrode material :
Initial state :
Electrolyte :
Comments :
Current amplifier : B-10A5V
Cable : standard
Electrode surface area : 0.001 cm2
Characteristic mass : 0.001 g
Equivalent Weight : 0.000 g/eq.
Density : 0.000 g/cm3
Volume (V) : 0.001 cm3
Cycle Definition : Charge/Discharge alternance
Mode                Single sine
E (V)               0.0000
vs.                 Eoc
tE (h:m:s)          0:00:0.0000
record              0
dI                  0.000
unit dI             mA
dt (s)              0.000
fi                  200.000
unit fi             kHz
ff                  50.000
unit ff             mHz
Nd                  12
Points              per decade
spacing             Logarithmic
Va (mV)             10.0
pw                  0.10
Na                  3
corr                0
E range min (V)     0.000
E range max (V)     5.000
I Range             Auto
Bandwidth           8
nc cycles           3
goto Ns'            0
nr cycles           0
inc. cycle          0

freq/Hz	Re(Z)/Ohm	-Im(Z)/Ohm	|Z|/Ohm	Phase(Z)/deg	time/s	<Ewe>/V	<I>/mA	Cs/uF	Cp/uF	cycle number	I Range	|Ewe|/V	|I|/A	Ns	(Q-Qo)/mA.h	Re(Y)/Ohm-1	Im(Y)/Ohm-1	|Y|/Ohm-1	Phase(Y)/deg	Re(C)/nF	Im(C)/nF	|C|/nF	Phase(C)/deg	Re(M)	Im(M)	|M|	Phase(M)/deg	Re(Permittivity)	Im(Permittivity)	|Permittivity|	Phase(Permittivity)/deg	Re(Resistivity)/Ohm.cm	Im(Resistivity)/Ohm.cm	|Resistivity|/Ohm.cm	Phase(Resistivity)/deg	Re(Conductivity)/mS/cm	Im(Conductivity)/mS/cm	|Conductivity|/mS/cm	Phase(Conductivity)/deg	Tan(Delta)	Loss Angle(Delta)/deg	dq/mA.h
199998	0.126075	-0.0238142	0.128305	10.6965	1.94649	0.000282167	-13.8834	-33.4162	-1.15118	1	65	0.00969311	0.0755475	0	-0.00276193	7.65851	-1.44661	7.79394	-10.6965	-1151.18	6094.51	6202.28	-100.697	0.0000000E+000	0.0000000E+000	0.0000000E+000	100.697	0.0000000E+000	0.0000000E+000	0.0000000E+000	-100.697	0.0000000E+000	0.0000000E+000	0.0000000E+000	10.6965	0.0000000E+000	0.0000000E+000	0.0000000E+000	-10.6965	-5.29412	-10.6965	-0.00276193
16395.1	0.131855	0.00185728	0.131868	-0.807003	9.43648	0.000288915	3.60454	5226.7	1.03682	1	65	0.0102735	0.0779074	0	0.00580626	7.58258	0.106807	7.58333	0.807003	1036.82	73607.6	73614.9	-89.193	0.0000000E+000	0.0000000E+000	0.0000000E+000	89.193	0.0000000E+000	0.0000000E+000	0.0000000E+000	-89.193	0.0000000E+000	0.0000000E+000	0.0000000E+000	-0.807003	0.0000000E+000	0.0000000E+000	0.0000000E+000	0.807003	70.9936	0.807003	0.000591009
1343.71	0.139863	0.00552151	0.139972	-2.26075	18.439	0.000202757	3.00179	21451.4	33.3805	1	65	0.0102388	0.0731488	0	0.0125467	7.13875	0.281824	7.14431	2.26075	33380.5	845544	846202	-87.7392	0.0000000E+000	0.0000000E+000	0.0000000E+000	87.7392	0.0000000E+000	0.0000000E+000	0.0000000E+000	-87.7392	0.0000000E+000	0.0000000E+000	0.0000000E+000	-2.26075	0.0000000E+000	0.0000000E+000	0.0000000E+000	2.26075	25.3305	2.26075	0.000839015
110.105	0.148716	0.00555517	0.14882	-2.13924	27.4376	0.000223075	2.90807	260204	362.565	1	65	0.0102723	0.0690251	0	0.0192133	6.71485	0.250827	6.71953	2.13924	362565	9.70616e+06	9.71293e+06	-87.8608	0.0000000E+000	0.0000000E+000	0.0000000E+000	87.8608	0.0000000E+000	0.0000000E+000	0.0000000E+000	-87.8608	0.0000000E+000	0.0000000E+000	0.0000000E+000	-2.13924	0.0000000E+000	0.0000000E+000	0.0000000E+000	2.13924	26.7708	2.13924	0.000757157
9.02139	0.161116	0.0040917	0.161168	-1.45477	36.7705	0.000202496	2.37061	4.31164e+06	2779.03	1	37	0.0102749	0.0637526	0	0.0260938	6.2027	0.157524	6.2047	1.45477	2.77903e+06	1.09428e+08	1.09463e+08	-88.5452	0.0000000E+000	0.0000000E+000	0.0000000E+000	88.5452	0.0000000E+000	0.0000000E+000	0.0000000E+000	-88.5452	0.0000000E+000	0.0000000E+000	0.0000000E+000	-1.45477	0.0000000E+000	0.0000000E+000	0.0000000E+000	1.45477	39.3763	1.45477	0.000718524
0.73982	0.165111	0.00390955	0.165158	-1.35641	59.6161	0.000223823	2.43802	5.50259e+07	30833.5	1	37	0.0102754	0.0622155	0	0.0436062	6.05312	0.143327	6.05482	1.35641	3.08336e+07	1.30219e+09	1.30255e+09	-88.6436	0.0000000E+000	0.0000000E+000	0.0000000E+000	88.6436	0.0000000E+000	0.0000000E+000	0.0000000E+000	-88.6436	0.0000000E+000	0.0000000E+000	0.0000000E+000	-1.35641	0.0000000E+000	0.0000000E+000	0.0000000E+000	1.35641	42.2328	1.35641	0.00210079
0.0606438	0.168129	0.00156193	0.168136	-0.532266	328.72	0.000221194	2.4569	1.68025e+09	145002	1	37	0.0102734	0.0611016	0	0.22125	5.94732	0.055251	5.94757	0.532266	1.45002e+08	1.56083e+10	1.5609e+10	-89.4677	0.0000000E+000	0.0000000E+000	0.0000000E+000	89.4677	0.0000000E+000	0.0000000E+000	0.0000000E+000	-89.4677	0.0000000E+000	0.0000000E+000	0.0000000E+000	-0.532266	0.0000000E+000	0.0000000E+000	0.0000000E+000	0.532266	107.642	0.532266	0.0551921
24087	0.127285	0.000354238	0.127286	-0.159455	398.206	0.000327017	3.1924	18652.8	0.144468	2	65	0.010518	0.0826332	0	0.301333	7.8563	0.0218642	7.85633	0.159455	144.468	51910.6	51910.8	-89.8405	0.0000000E+000	0.0000000E+000	0.0000000E+000	89.8405	0.0000000E+000	0.0000000E+000	0.0000000E+000	-89.8405	0.0000000E+000	0.0000000E+000	0.0000000E+000	-0.159455	0.0000000E+000	0.0000000E+000	0.0000000E+000	0.159455	359.322	0.159455	0.00016392
1974.37	0.134592	0.00512247	0.13469	-2.17958	406.193	0.000225144	2.68803	15736.7	22.7617	2	65	0.0101327	0.0752304	0	0.30651	7.41911	0.282366	7.42448	2.17958	22761.7	598059	598492	-87.8204	0.0000000E+000	0.0000000E+000	0.0000000E+000	87.8204	0.0000000E+000	0.0000000E+000	0.0000000E+000	-87.8204	0.0000000E+000	0.0000000E+000	0.0000000E+000	-2.17958	0.0000000E+000	0.0000000E+000	0.0000000E+000	2.17958	26.2748	2.17958	0.000583434
161.812	0.143636	0.00555512	0.143743	-2.21482	415.188	0.000220876	3.03514	177058	264.441	2	65	0.0100801	0.0701258	0	0.313178	6.95167	0.268856	6.95687	2.21482	264441	6.8375e+06	6.84261e+06	-87.7852	0.0000000E+000	0.0000000E+000	0.0000000E+000	87.7852	0.0000000E+000	0.0000000E+000	0.0000000E+000	-87.7852	0.0000000E+000	0.0000000E+000	0.0000000E+000	-2.21482	0.0000000E+000	0.0000000E+000	0.0000000E+000	2.21482	25.8564	2.21482	0.000791849
13.2565	0.156342	0.00452048	0.156407	-1.6562	424.513	0.000226953	2.46256	2.65586e+06	2218.52	2	37	0.0100835	0.0644697	0	0.320061	6.39091	0.184788	6.39358	1.6562	2.21852e+06	7.67278e+07	7.67599e+07	-88.3438	0.0000000E+000	0.0000000E+000	0.0000000E+000	88.3438	0.0000000E+000	0.0000000E+000	0.0000000E+000	-88.3438	0.0000000E+000	0.0000000E+000	0.0000000E+000	-1.6562	0.0000000E+000	0.0000000E+000	0.0000000E+000	1.6562	34.5852	1.6562	0.000511427
1.08628	0.160755	0.0034363	0.160791	-1.22457	440.986	0.000224026	2.41888	4.26371e+07	19473.5	2	37	0.010082	0.0627026	0	0.333846	6.21782	0.132912	6.21924	1.22457	1.94735e+07	9.10996e+08	9.11204e+08	-88.7754	0.0000000E+000	0.0000000E+000	0.0000000E+000	88.7754	0.0000000E+000	0.0000000E+000	0.0000000E+000	-88.7754	0.0000000E+000	0.0000000E+000	0.0000000E+000	-1.22457	0.0000000E+000	0.0000000E+000	0.0000000E+000	1.22457	46.7814	1.22457	0.00402037
0.0891104	0.16656	0.00202485	0.166573	-0.696502	624.359	0.000233618	2.44093	8.82061e+08	130340	2	37	0.010083	0.0605322	0	0.436697	6.00294	0.0729768	6.00338	0.696502	1.3034e+08	1.07215e+10	1.07223e+10	-89.3035	0.0000000E+000	0.0000000E+000	0.0000000E+000	89.3035	0.0000000E+000	0.0000000E+000	0.0000000E+000	-89.3035	0.0000000E+000	0.0000000E+000	0.0000000E+000	-0.696502	0.0000000E+000	0.0000000E+000	0.0000000E+000	0.696502	82.2581	0.696502	0.0281016
35388.2	0.124946	-0.00145855	0.124954	0.668811	786.35	0.000339004	3.26786	-3083.47	-0.420128	3	65	0.0105519	0.084446	0	0.615681	8.00238	-0.0934157	8.00293	-0.668811	-420.126	35989.9	35992.4	-90.6688	0.0000000E+000	0.0000000E+000	0.0000000E+000	90.6688	0.0000000E+000	0.0000000E+000	0.0000000E+000	-90.6688	0.0000000E+000	0.0000000E+000	0.0000000E+000	0.668811	0.0000000E+000	0.0000000E+000	0.0000000E+000	-0.668811	-85.6642	-0.668811	-0.000127404
2900.93	0.131913	0.00490907	0.132004	-2.13125	794.104	0.000227381	2.85069	11175.9	15.4564	3	65	0.0102801	0.0778774	0	0.623487	7.57029	0.281725	7.57553	2.13125	15456.4	415332	415620	-87.8687	0.0000000E+000	0.0000000E+000	0.0000000E+000	87.8687	0.0000000E+000	0.0000000E+000	0.0000000E+000	-87.8687	0.0000000E+000	0.0000000E+000	0.0000000E+000	-2.13125	0.0000000E+000	0.0000000E+000	0.0000000E+000	2.13125	26.8712	2.13125	0.000850907
237.793	0.140987	0.00533256	0.141088	-2.16607	803.109	0.000253106	2.89727	125512	179.298	3	65	0.0101977	0.0722787	0	0.62996	7.08271	0.267889	7.08777	2.16607	179298	4.74045e+06	4.74384e+06	-87.8339	0.0000000E+000	0.0000000E+000	0.0000000E+000	87.8339	0.0000000E+000	0.0000000E+000	0.0000000E+000	-87.8339	0.0000000E+000	0.0000000E+000	0.0000000E+000	-2.16607	0.0000000E+000	0.0000000E+000	0.0000000E+000	2.16607	26.4389	2.16607	0.000838066
19.4825	0.153501	0.00490005	0.153579	-1.82837	812.386	0.000241698	4.11187	1.66715e+06	1697.12	3	37	0.0102014	0.0664243	0	0.638306	6.50799	0.207748	6.5113	1.82837	1.69712e+06	5.31645e+07	5.31916e+07	-88.1716	0.0000000E+000	0.0000000E+000	0.0000000E+000	88.1716	0.0000000E+000	0.0000000E+000	0.0000000E+000	-88.1716	0.0000000E+000	0.0000000E+000	0.0000000E+000	-1.82837	0.0000000E+000	0.0000000E+000	0.0000000E+000	1.82837	31.3264	1.82837	0.000823085
1.59602	0.158371	0.0030862	0.158401	-1.11639	824.953	0.00024002	2.35732	3.23116e+07	12265.6	3	37	0.0102001	0.0643941	0	0.646184	6.31188	0.123	6.31307	1.11639	1.22656e+07	6.2942e+08	6.2954e+08	-88.8836	0.0000000E+000	0.0000000E+000	0.0000000E+000	88.8836	0.0000000E+000	0.0000000E+000	0.0000000E+000	-88.8836	0.0000000E+000	0.0000000E+000	0.0000000E+000	-1.11639	0.0000000E+000	0.0000000E+000	0.0000000E+000	1.11639	51.316	1.11639	0.00243738
0.13084	0.164561	0.00262758	0.164582	-0.914775	950.003	0.000261107	2.38257	4.62938e+08	117997	3	37	0.0101969	0.0619564	0	0.708654	6.07523	0.0970044	6.076	0.914775	1.17996e+08	7.38994e+09	7.39088e+09	-89.0852	0.0000000E+000	0.0000000E+000	0.0000000E+000	89.0852	0.0000000E+000	0.0000000E+000	0.0000000E+000	-89.0852	0.0000000E+000	0.0000000E+000	0.0000000E+000	-0.914775	0.0000000E+000	0.0000000E+000	0.0000000E+000	0.914775	62.6284	0.914775	0.00991627
52006	0.123138	-0.00397483	0.123202	1.84884	1174.49	0.000333318	3.37164	-769.923	-0.801406	4	65	0.0105662	0.0857638	0	0.926435	8.11255	-0.26187	8.11677	-1.84884	-801.406	24827	24839.9	-91.8488	0.0000000E+000	0.0000000E+000	0.0000000E+000	91.8488	0.0000000E+000	0.0000000E+000	0.0000000E+000	-91.8488	0.0000000E+000	0.0000000E+000	0.0000000E+000	1.84884	0.0000000E+000	0.0000000E+000	0.0000000E+000	-1.84884	-30.9793	-1.84884	0.000744742
4261.37	0.129499	0.00443488	0.129575	-1.9614	1182.01	0.000235975	2.83597	8421.5	9.86526	4	65	0.0103744	0.080065	0	0.933939	7.713	0.264142	7.71752	1.9614	9865.25	288068	288236	-88.0386	0.0000000E+000	0.0000000E+000	0.0000000E+000	88.0386	0.0000000E+000	0.0000000E+000	0.0000000E+000	-88.0386	0.0000000E+000	0.0000000E+000	0.0000000E+000	-1.9614	0.0000000E+000	0.0000000E+000	0.0000000E+000	1.9614	29.2002	1.9614	0.000865746
349.218	0.138455	0.00545798	0.138562	-2.25747	1191.01	0.000250179	2.72846	83501.1	129.559	4	65	0.010239	0.073895	0	0.94202	7.21138	0.284278	7.21698	2.25747	129559	3.28657e+06	3.28912e+06	-87.7425	0.0000000E+000	0.0000000E+000	0.0000000E+000	87.7425	0.0000000E+000	0.0000000E+000	0.0000000E+000	-87.7425	0.0000000E+000	0.0000000E+000	0.0000000E+000	-2.25747	0.0000000E+000	0.0000000E+000	0.0000000E+000	2.25747	25.3674	2.25747	0.000418416
90.8427	0.142955	0.00526661	0.143052	-2.10989	1195.85	0.000237298	2.49109	332659	450.895	4	65	0.0102328	0.0715325	0	0.944798	6.98575	0.257363	6.99048	2.10989	450895	1.22389e+07	1.22472e+07	-87.8901	0.0000000E+000	0.0000000E+000	0.0000000E+000	87.8901	0.0000000E+000	0.0000000E+000	0.0000000E+000	-87.8901	0.0000000E+000	0.0000000E+000	0.0000000E+000	-2.10989	0.0000000E+000	0.0000000E+000	0.0000000E+000	2.10989	27.1436	2.10989	0.000787031