File: Python/ImpedanceDataOld/dual layer tests _vanadium positive side single-tank symmetric cell_1.6 M total vanadium_ve=5cms_choose the cycle number=3/dual-layer_AvCarb 1186 carbon cloth + Freudenberg H23 carbon paper.mpt
EC-Lab ASCII FILE
Nb header lines : 66

Potentio Electrochemical Impedance Spectroscopy

Run on channel : 1 (SN 5680)
User :
Electrode connection : standard
Potential control : Ewe
Ewe ctrl range : min = 0.00 V, max = 5.00 V
Ewe,I filtering : <None>
Safety Limits :
	Do not start on E overload
Channel : Floating
Acquisition started on : 06/30/2023 00:59:40.052
Loaded Setting File :  C:\Data\baili\Electrode Combination Tests\20230622\new tests\positive\ELAT_ve5_30mL_EIS_C01.mpr
Saved on :
	File : AvCarb_FrePaper_ve5_30mL_EIS_C01.mpr
	Directory : C:\Data\baili\Electrode Combination Tests\20230622\new tests\positive\
	Host : 192.168.0.1
Device : SP-300 (SN 0955)
Address : 192.168.0.4
EC-Lab for windows v11.46 (software)
Internet server v11.40 (firmware)
Command interpretor v11.46 (firmware)
Electrode material :
Initial state :
Electrolyte :
Comments :
Current amplifier : B-10A5V
Cable : standard
Electrode surface area : 0.001 cm2
Characteristic mass : 0.001 g
Equivalent Weight : 0.000 g/eq.
Density : 0.000 g/cm3
Volume (V) : 0.001 cm3
Cycle Definition : Charge/Discharge alternance
Mode                Single sine
E (V)               0.0000
vs.                 Eoc
tE (h:m:s)          0:00:0.0000
record              0
dI                  0.000
unit dI             mA
dt (s)              0.000
fi                  200.000
unit fi             kHz
ff                  50.000
unit ff             mHz
Nd                  8
Points              per decade
spacing             Logarithmic
Va (mV)             10.0
pw                  0.10
Na                  3
corr                0
E range min (V)     0.000
E range max (V)     5.000
I Range             Auto
Bandwidth           8
nc cycles           3
goto Ns'            0
nr cycles           0
inc. cycle          0

freq/Hz	Re(Z)/Ohm	-Im(Z)/Ohm	|Z|/Ohm	Phase(Z)/deg	time/s	<Ewe>/V	<I>/mA	Cs/uF	Cp/uF	cycle number	I Range	|Ewe|/V	|I|/A	Ns	(Q-Qo)/mA.h	Re(Y)/Ohm-1	Im(Y)/Ohm-1	|Y|/Ohm-1	Phase(Y)/deg	Re(C)/nF	Im(C)/nF	|C|/nF	Phase(C)/deg	Re(M)	Im(M)	|M|	Phase(M)/deg	Re(Permittivity)	Im(Permittivity)	|Permittivity|	Phase(Permittivity)/deg	Re(Resistivity)/Ohm.cm	Im(Resistivity)/Ohm.cm	|Resistivity|/Ohm.cm	Phase(Resistivity)/deg	Re(Conductivity)/mS/cm	Im(Conductivity)/mS/cm	|Conductivity|/mS/cm	Phase(Conductivity)/deg	Tan(Delta)	Loss Angle(Delta)/deg	dq/mA.h
199998	0.123673	-0.0289378	0.127014	13.1695	1.9465	-0.000600988	-21.5776	-27.4998	-1.42745	1	65	0.00975392	0.0767944	0	-0.00555785	7.66611	-1.79376	7.87318	-13.1695	-1427.45	6100.56	6265.33	-103.169	0.0000000E+000	0.0000000E+000	0.0000000E+000	103.169	0.0000000E+000	0.0000000E+000	0.0000000E+000	-103.169	0.0000000E+000	0.0000000E+000	0.0000000E+000	13.1695	0.0000000E+000	0.0000000E+000	0.0000000E+000	-13.1695	-4.27376	-13.1695	-0.00555785
10753.8	0.128514	0.00139416	0.128521	-0.621539	7.70748	-0.000560276	-3.52851	10615.6	1.24917	1	65	0.0102819	0.0800012	0	-0.00964317	7.78035	0.0844037	7.78081	0.621539	1249.16	115148	115155	-89.3785	0.0000000E+000	0.0000000E+000	0.0000000E+000	89.3785	0.0000000E+000	0.0000000E+000	0.0000000E+000	-89.3785	0.0000000E+000	0.0000000E+000	0.0000000E+000	-0.621539	0.0000000E+000	0.0000000E+000	0.0000000E+000	0.621539	92.1802	0.621539	-0.000333497
577.965	0.135058	0.00386669	0.135113	-1.63992	14.9415	-0.000663304	-4.31701	71216.2	58.3261	1	65	0.0104982	0.0776995	0	-0.0179372	7.39818	0.211809	7.40121	1.63992	58326	2.03724e+06	2.03808e+06	-88.3601	0.0000000E+000	0.0000000E+000	0.0000000E+000	88.3601	0.0000000E+000	0.0000000E+000	0.0000000E+000	-88.3601	0.0000000E+000	0.0000000E+000	0.0000000E+000	-1.63992	0.0000000E+000	0.0000000E+000	0.0000000E+000	1.63992	34.9285	1.63992	-0.000489364
31.0636	0.143749	0.00508632	0.143839	-2.02647	21.8059	-0.000654431	-3.68502	1.00731e+06	1259.55	1	65	0.0105022	0.0730132	0	-0.0266514	6.94786	0.245838	6.95221	2.02647	1.25955e+06	3.55975e+07	3.56197e+07	-87.9735	0.0000000E+000	0.0000000E+000	0.0000000E+000	87.9735	0.0000000E+000	0.0000000E+000	0.0000000E+000	-87.9735	0.0000000E+000	0.0000000E+000	0.0000000E+000	-2.02647	0.0000000E+000	0.0000000E+000	0.0000000E+000	2.02647	28.262	2.02647	-0.00103905
1.66934	0.153264	0.00239781	0.153283	-0.896318	31.371	-0.000659692	-4.23301	3.97613e+07	9729.8	1	37	0.0105017	0.0685118	0	-0.0391836	6.5231	0.102054	6.5239	0.896318	9.72979e+06	6.21913e+08	6.21989e+08	-89.1037	0.0000000E+000	0.0000000E+000	0.0000000E+000	89.1037	0.0000000E+000	0.0000000E+000	0.0000000E+000	-89.1037	0.0000000E+000	0.0000000E+000	0.0000000E+000	-0.896318	0.0000000E+000	0.0000000E+000	0.0000000E+000	0.896318	63.9183	0.896318	-0.00376854
0.0897631	0.156902	0.00118203	0.156907	-0.431632	160.972	-0.000635218	-3.90093	1.50001e+09	85127	1	37	0.0105016	0.0669288	0	-0.154809	6.37302	0.0480115	6.3732	0.431632	8.51271e+07	1.12997e+10	1.13e+10	-89.5684	0.0000000E+000	0.0000000E+000	0.0000000E+000	89.5684	0.0000000E+000	0.0000000E+000	0.0000000E+000	-89.5684	0.0000000E+000	0.0000000E+000	0.0000000E+000	-0.431632	0.0000000E+000	0.0000000E+000	0.0000000E+000	0.431632	132.74	0.431632	-0.0156948
25840.6	0.124105	-0.00151336	0.124114	0.698642	274.841	-0.000549501	-2.80727	-4069.81	-0.605086	2	65	0.0109017	0.087836	0	-0.257576	8.0565	-0.0982427	8.0571	-0.698642	-605.083	49620.8	49624.5	-90.6986	0.0000000E+000	0.0000000E+000	0.0000000E+000	90.6986	0.0000000E+000	0.0000000E+000	0.0000000E+000	-90.6986	0.0000000E+000	0.0000000E+000	0.0000000E+000	0.698642	0.0000000E+000	0.0000000E+000	0.0000000E+000	-0.698642	-82.0061	-0.698642	-0.00142623
1388.67	0.130178	0.00342073	0.130223	-1.50524	281.287	-0.000644365	-3.55348	33504.5	23.1189	2	65	0.0101027	0.0775803	0	-0.264323	7.67651	0.201719	7.67916	1.50524	23119	879803	880106	-88.4948	0.0000000E+000	0.0000000E+000	0.0000000E+000	88.4948	0.0000000E+000	0.0000000E+000	0.0000000E+000	-88.4948	0.0000000E+000	0.0000000E+000	0.0000000E+000	-1.50524	0.0000000E+000	0.0000000E+000	0.0000000E+000	1.50524	38.0555	1.50524	-0.000385073
74.6414	0.13751	0.00477716	0.137593	-1.98968	288.208	-0.000657395	-3.6403	446345	538.041	2	65	0.0100764	0.0732334	0	-0.271543	7.26341	0.252334	7.26779	1.98968	538041	1.54875e+07	1.54968e+07	-88.0103	0.0000000E+000	0.0000000E+000	0.0000000E+000	88.0103	0.0000000E+000	0.0000000E+000	0.0000000E+000	-88.0103	0.0000000E+000	0.0000000E+000	0.0000000E+000	-1.98968	0.0000000E+000	0.0000000E+000	0.0000000E+000	1.98968	28.785	1.98968	-0.000491438
4.01052	0.149235	0.00248364	0.149256	-0.953453	295.381	-0.000647637	-3.96992	1.59783e+07	4424.29	2	37	0.0100806	0.0675391	0	-0.277036	6.69896	0.111487	6.69989	0.953453	4.42429e+06	2.65844e+08	2.65881e+08	-89.0465	0.0000000E+000	0.0000000E+000	0.0000000E+000	89.0465	0.0000000E+000	0.0000000E+000	0.0000000E+000	-89.0465	0.0000000E+000	0.0000000E+000	0.0000000E+000	-0.953453	0.0000000E+000	0.0000000E+000	0.0000000E+000	0.953453	60.0874	0.953453	0.000167273
0.215779	0.154338	0.00236439	0.154357	-0.877675	349.657	-0.000665232	-3.80558	3.11954e+08	73194.7	2	37	0.0100799	0.0653028	0	-0.327917	6.47775	0.0992359	6.47851	0.877675	7.31949e+07	4.77787e+09	4.77843e+09	-89.1223	0.0000000E+000	0.0000000E+000	0.0000000E+000	89.1223	0.0000000E+000	0.0000000E+000	0.0000000E+000	-89.1223	0.0000000E+000	0.0000000E+000	0.0000000E+000	-0.877675	0.0000000E+000	0.0000000E+000	0.0000000E+000	0.877675	65.2762	0.877675	-0.00603165
62110.3	0.121319	-0.00715484	0.12153	3.37514	541.429	-0.000556715	-2.60213	-358.143	-1.24134	3	65	0.0109844	0.0903849	0	-0.574638	8.21417	-0.484435	8.22845	-3.37514	-1241.34	21048.5	21085	-93.3751	0.0000000E+000	0.0000000E+000	0.0000000E+000	93.3751	0.0000000E+000	0.0000000E+000	0.0000000E+000	-93.3751	0.0000000E+000	0.0000000E+000	0.0000000E+000	3.37514	0.0000000E+000	0.0000000E+000	0.0000000E+000	-3.37514	-16.9562	-3.37514	-0.000867598
3338.93	0.126379	0.00304126	0.126415	-1.37854	547.528	-0.000664814	-3.33548	15673.3	9.07124	3	65	0.0103601	0.0819527	0	-0.579152	7.90815	0.190307	7.91044	1.37854	9071.26	376953	377062	-88.6215	0.0000000E+000	0.0000000E+000	0.0000000E+000	88.6215	0.0000000E+000	0.0000000E+000	0.0000000E+000	-88.6215	0.0000000E+000	0.0000000E+000	0.0000000E+000	-1.37854	0.0000000E+000	0.0000000E+000	0.0000000E+000	1.37854	41.5547	1.37854	-0.00102003
179.483	0.133346	0.00403549	0.133407	-1.73343	554.44	-0.000655401	-3.47168	219736	201.065	3	65	0.0103049	0.0772444	0	-0.585638	7.49244	0.226746	7.49587	1.73343	201065	6.64385e+06	6.64689e+06	-88.2666	0.0000000E+000	0.0000000E+000	0.0000000E+000	88.2666	0.0000000E+000	0.0000000E+000	0.0000000E+000	-88.2666	0.0000000E+000	0.0000000E+000	0.0000000E+000	-1.73343	0.0000000E+000	0.0000000E+000	0.0000000E+000	1.73343	33.0433	1.73343	-0.00094324
9.64507	0.146064	0.00344261	0.146104	-1.35017	561.693	-0.000661291	-3.56626	4.79322e+06	2661.2	3	37	0.0103099	0.0705655	0	-0.593182	6.84253	0.161273	6.84443	1.35017	2.66119e+06	1.1291e+08	1.12941e+08	-88.6498	0.0000000E+000	0.0000000E+000	0.0000000E+000	88.6498	0.0000000E+000	0.0000000E+000	0.0000000E+000	-88.6498	0.0000000E+000	0.0000000E+000	0.0000000E+000	-1.35017	0.0000000E+000	0.0000000E+000	0.0000000E+000	1.35017	42.4282	1.35017	-0.000539036
0.518689	0.150456	0.00321398	0.15049	-1.22374	584.673	-0.000649698	-3.53546	9.54707e+07	43545	3	37	0.0103081	0.0684968	0	-0.611015	6.64343	0.141914	6.64494	1.22374	4.35449e+07	2.03847e+09	2.03894e+09	-88.7763	0.0000000E+000	0.0000000E+000	0.0000000E+000	88.7763	0.0000000E+000	0.0000000E+000	0.0000000E+000	-88.7763	0.0000000E+000	0.0000000E+000	0.0000000E+000	-1.22374	0.0000000E+000	0.0000000E+000	0.0000000E+000	1.22374	46.813	1.22374	-0.00173701
149300	0.118546	-0.0195217	0.120143	9.35129	808.019	-0.000540982	-2.62505	-54.6062	-1.44172	4	65	0.0107455	0.0894394	0	-0.793211	8.21281	-1.35245	8.32342	-9.35129	-1441.72	8754.9	8872.81	-99.3513	0.0000000E+000	0.0000000E+000	0.0000000E+000	99.3513	0.0000000E+000	0.0000000E+000	0.0000000E+000	-99.3513	0.0000000E+000	0.0000000E+000	0.0000000E+000	9.35129	0.0000000E+000	0.0000000E+000	0.0000000E+000	-9.35129	-6.07254	-9.35129	-0.000581632
8023.44	0.123359	0.00198056	0.123375	-0.919817	813.852	-0.000648224	-3.2889	10015.5	2.58103	4	65	0.0101903	0.0825965	0	-0.797342	8.10433	0.130117	8.10537	0.919817	2581.02	160759	160780	-89.0802	0.0000000E+000	0.0000000E+000	0.0000000E+000	89.0802	0.0000000E+000	0.0000000E+000	0.0000000E+000	-89.0802	0.0000000E+000	0.0000000E+000	0.0000000E+000	-0.919817	0.0000000E+000	0.0000000E+000	0.0000000E+000	0.919817	62.2851	0.919817	-0.000650448
431.242	0.130068	0.0037402	0.130122	-1.64713	820.686	-0.000664535	-3.39306	98674.3	81.5259	4	65	0.0103563	0.0795891	0	-0.80482	7.68194	0.2209	7.68512	1.64713	81526	2.83511e+06	2.83628e+06	-88.3529	0.0000000E+000	0.0000000E+000	0.0000000E+000	88.3529	0.0000000E+000	0.0000000E+000	0.0000000E+000	-88.3529	0.0000000E+000	0.0000000E+000	0.0000000E+000	-1.64713	0.0000000E+000	0.0000000E+000	0.0000000E+000	1.64713	34.7756	1.64713	-0.000904503
23.1963	0.138814	0.00464929	0.138892	-1.91829	827.602	-0.000648326	-3.14395	1.47576e+06	1653.62	4	65	0.0103434	0.0744711	0	-0.811994	7.19582	0.241009	7.19985	1.91829	1.65362e+06	4.93722e+07	4.93998e+07	-88.0817	0.0000000E+000	0.0000000E+000	0.0000000E+000	88.0817	0.0000000E+000	0.0000000E+000	0.0000000E+000	-88.0817	0.0000000E+000	0.0000000E+000	0.0000000E+000	-1.91829	0.0000000E+000	0.0000000E+000	0.0000000E+000	1.91829	29.857	1.91829	-0.00113616
1.24562	0.147054	0.00260956	0.147077	-1.01664	839.035	-0.000648589	-3.43197	4.8963e+07	15414	4	37	0.0103495	0.0703681	0	-0.82483	6.7981	0.120637	6.79917	1.01664	1.54139e+07	8.68606e+08	8.68742e+08	-88.9834	0.0000000E+000	0.0000000E+000	0.0000000E+000	88.9834	0.0000000E+000	0.0000000E+000	0.0000000E+000	-88.9834	0.0000000E+000	0.0000000E+000	0.0000000E+000	-1.01664	0.0000000E+000	0.0000000E+000	0.0000000E+000	1.01664	56.3519	1.01664	-0.00404149
0.215779	0.15101	0.00233072	0.151028	-0.884244	886.291	-0.000635742	-3.43922	3.16461e+08	75367.5	4	37	0.0103471	0.068511	0	-0.877943	6.62049	0.102182	6.62128	0.884244	7.53678e+07	4.88316e+09	4.88374e+09	-89.1158	0.0000000E+000	0.0000000E+000	0.0000000E+000	89.1158	0.0000000E+000	0.0000000E+000	0.0000000E+000	-89.1158	0.0000000E+000	0.0000000E+000	0.0000000E+000	-0.884244	0.0000000E+000	0.0000000E+000	0.0000000E+000	0.884244	64.7912	0.884244	-0.0236954