File: Python/ImpedanceDataOld/dual layer tests _vanadium positive side single-tank symmetric cell_1.6 M total vanadium_ve=5cms_choose the cycle number=3/single-layer_AvCarb 1186 carbon cloth.mpt
EC-Lab ASCII FILE
Nb header lines : 66

Potentio Electrochemical Impedance Spectroscopy

Run on channel : 1 (SN 5680)
User :
Electrode connection : standard
Potential control : Ewe
Ewe ctrl range : min = 0.00 V, max = 5.00 V
Ewe,I filtering : <None>
Safety Limits :
	Do not start on E overload
Channel : Floating
Acquisition started on : 06/29/2023 21:00:50.888
Loaded Setting File :  C:\Data\baili\Electrode Combination Tests\20230622\old\AF DL\AFDL_ve2_20mL_EIS_2_C01.mpr
Saved on :
	File : AvCarb_ve5_30mL_EIS_C01.mpr
	Directory : C:\Data\baili\Electrode Combination Tests\20230622\new tests\positive\
	Host : 192.168.0.1
Device : SP-300 (SN 0955)
Address : 192.168.0.4
EC-Lab for windows v11.46 (software)
Internet server v11.40 (firmware)
Command interpretor v11.46 (firmware)
Electrode material :
Initial state :
Electrolyte :
Comments :
Current amplifier : B-10A5V
Cable : standard
Electrode surface area : 0.001 cm2
Characteristic mass : 0.001 g
Equivalent Weight : 0.000 g/eq.
Density : 0.000 g/cm3
Volume (V) : 0.001 cm3
Cycle Definition : Charge/Discharge alternance
Mode                Single sine
E (V)               0.0000
vs.                 Eoc
tE (h:m:s)          0:00:0.0000
record              0
dI                  0.000
unit dI             mA
dt (s)              0.000
fi                  200.000
unit fi             kHz
ff                  50.000
unit ff             mHz
Nd                  8
Points              per decade
spacing             Logarithmic
Va (mV)             10.0
pw                  0.10
Na                  3
corr                0
E range min (V)     0.000
E range max (V)     5.000
I Range             Auto
Bandwidth           8
nc cycles           3
goto Ns'            0
nr cycles           0
inc. cycle          0

freq/Hz	Re(Z)/Ohm	-Im(Z)/Ohm	|Z|/Ohm	Phase(Z)/deg	time/s	<Ewe>/V	<I>/mA	Cs/uF	Cp/uF	cycle number	I Range	|Ewe|/V	|I|/A	Ns	(Q-Qo)/mA.h	Re(Y)/Ohm-1	Im(Y)/Ohm-1	|Y|/Ohm-1	Phase(Y)/deg	Re(C)/nF	Im(C)/nF	|C|/nF	Phase(C)/deg	Re(M)	Im(M)	|M|	Phase(M)/deg	Re(Permittivity)	Im(Permittivity)	|Permittivity|	Phase(Permittivity)/deg	Re(Resistivity)/Ohm.cm	Im(Resistivity)/Ohm.cm	|Resistivity|/Ohm.cm	Phase(Resistivity)/deg	Re(Conductivity)/mS/cm	Im(Conductivity)/mS/cm	|Conductivity|/mS/cm	Phase(Conductivity)/deg	Tan(Delta)	Loss Angle(Delta)/deg	dq/mA.h
199998	0.0979303	-0.0218907	0.100347	12.6004	2.11449	0.000286529	-13.7442	-36.3526	-1.72999	1	65	0.0096585	0.0962509	0	-0.00270766	9.72539	-2.17395	9.96541	-12.6004	-1729.99	7739.29	7930.29	-102.6	0.0000000E+000	0.0000000E+000	0.0000000E+000	102.6	0.0000000E+000	0.0000000E+000	0.0000000E+000	-102.6	0.0000000E+000	0.0000000E+000	0.0000000E+000	12.6004	0.0000000E+000	0.0000000E+000	0.0000000E+000	-12.6004	-4.47361	-12.6004	-0.00270766
10753.8	0.10925	0.010198	0.109725	-5.33283	7.87548	0.000305077	3.69732	1451.26	12.536	1	65	0.0103974	0.0947582	0	0.00252504	9.07423	0.847035	9.11368	5.33283	12536	134298	134881	-84.6672	0.0000000E+000	0.0000000E+000	0.0000000E+000	84.6672	0.0000000E+000	0.0000000E+000	0.0000000E+000	-84.6672	0.0000000E+000	0.0000000E+000	0.0000000E+000	-5.33283	0.0000000E+000	0.0000000E+000	0.0000000E+000	5.33283	10.7129	5.33283	0.000861107
577.965	0.143733	0.0129663	0.144317	-5.15473	15.3425	0.000208274	2.95447	21237.5	171.435	1	65	0.0103427	0.0716663	0	0.00884571	6.90117	0.622558	6.92919	5.15473	171434	1.90038e+06	1.9081e+06	-84.8453	0.0000000E+000	0.0000000E+000	0.0000000E+000	84.8453	0.0000000E+000	0.0000000E+000	0.0000000E+000	-84.8453	0.0000000E+000	0.0000000E+000	0.0000000E+000	-5.15473	0.0000000E+000	0.0000000E+000	0.0000000E+000	5.15473	11.0852	5.15473	0.000520981
31.0636	0.152551	0.00181499	0.152562	-0.681649	22.2089	0.000223541	2.91031	2.82289e+06	399.53	1	65	0.0103067	0.0675577	0	0.0148209	6.55425	0.0779797	6.55471	0.681649	399530	3.35808e+07	3.35832e+07	-89.3184	0.0000000E+000	0.0000000E+000	0.0000000E+000	89.3184	0.0000000E+000	0.0000000E+000	0.0000000E+000	-89.3184	0.0000000E+000	0.0000000E+000	0.0000000E+000	-0.681649	0.0000000E+000	0.0000000E+000	0.0000000E+000	0.681649	84.0507	0.681649	0.000831377
1.66934	0.157043	0.00140402	0.157049	-0.51223	31.775	0.000224473	2.60418	6.79053e+07	5427.21	1	37	0.0103115	0.0656579	0	0.0235861	6.36718	0.0569248	6.36744	0.51223	5.42721e+06	6.07047e+08	6.07072e+08	-89.4878	0.0000000E+000	0.0000000E+000	0.0000000E+000	89.4878	0.0000000E+000	0.0000000E+000	0.0000000E+000	-89.4878	0.0000000E+000	0.0000000E+000	0.0000000E+000	-0.51223	0.0000000E+000	0.0000000E+000	0.0000000E+000	0.51223	111.853	0.51223	0.000989746
0.0897631	0.161747	0.000302158	0.161747	-0.107034	161.378	0.00022806	2.39945	5.86797e+09	20477.9	1	37	0.0103129	0.0637595	0	0.0801789	6.18249	0.0115495	6.1825	0.107034	2.04777e+07	1.09619e+10	1.09619e+10	-89.893	0.0000000E+000	0.0000000E+000	0.0000000E+000	89.893	0.0000000E+000	0.0000000E+000	0.0000000E+000	-89.893	0.0000000E+000	0.0000000E+000	0.0000000E+000	-0.107034	0.0000000E+000	0.0000000E+000	0.0000000E+000	0.107034	535.304	0.107034	0.0135317
25840.6	0.109267	0.00437882	0.109355	-2.29486	274.922	0.000328322	2.85646	1406.57	2.25526	2	65	0.0109062	0.0997317	0	0.185972	9.13719	0.366167	9.14453	2.29486	2255.26	56276.8	56322	-87.7051	0.0000000E+000	0.0000000E+000	0.0000000E+000	87.7051	0.0000000E+000	0.0000000E+000	0.0000000E+000	-87.7051	0.0000000E+000	0.0000000E+000	0.0000000E+000	-2.29486	0.0000000E+000	0.0000000E+000	0.0000000E+000	2.29486	24.9536	2.29486	0.00161275
1388.67	0.137871	0.0171208	0.13893	-7.07872	281.368	0.000226412	2.32993	6694.2	101.66	2	65	0.0103888	0.0747772	0	0.190787	7.143	0.887013	7.19786	7.07872	101660	818657	824945	-82.9213	0.0000000E+000	0.0000000E+000	0.0000000E+000	82.9213	0.0000000E+000	0.0000000E+000	0.0000000E+000	-82.9213	0.0000000E+000	0.0000000E+000	0.0000000E+000	-7.07872	0.0000000E+000	0.0000000E+000	0.0000000E+000	7.07872	8.05287	7.07872	0.00078051
74.6414	0.156256	0.00323273	0.15629	-1.1852	288.287	0.000221323	2.3139	659585	282.195	2	65	0.0103082	0.0659554	0	0.194973	6.397	0.132345	6.39837	1.1852	282195	1.36401e+07	1.3643e+07	-88.8148	0.0000000E+000	0.0000000E+000	0.0000000E+000	88.8148	0.0000000E+000	0.0000000E+000	0.0000000E+000	-88.8148	0.0000000E+000	0.0000000E+000	0.0000000E+000	-1.1852	0.0000000E+000	0.0000000E+000	0.0000000E+000	1.1852	48.3357	1.1852	0.000676857
4.01052	0.160748	0.00114	0.160752	-0.406325	295.445	0.00023165	2.16149	3.48109e+07	1750.7	2	37	0.0103117	0.0641465	0	0.200504	6.22061	0.0441155	6.22077	0.406325	1.7507e+06	2.46861e+08	2.46867e+08	-89.5937	0.0000000E+000	0.0000000E+000	0.0000000E+000	89.5937	0.0000000E+000	0.0000000E+000	0.0000000E+000	-89.5937	0.0000000E+000	0.0000000E+000	0.0000000E+000	-0.406325	0.0000000E+000	0.0000000E+000	0.0000000E+000	0.406325	141.007	0.406325	0.000361092
0.215779	0.164034	0.000803022	0.164036	-0.280486	349.721	0.000239941	2.0814	9.18508e+08	22011.9	2	37	0.0103153	0.0628841	0	0.220233	6.09614	0.0298433	6.09621	0.280486	2.2012e+07	4.4964e+09	4.49646e+09	-89.7195	0.0000000E+000	0.0000000E+000	0.0000000E+000	89.7195	0.0000000E+000	0.0000000E+000	0.0000000E+000	-89.7195	0.0000000E+000	0.0000000E+000	0.0000000E+000	-0.280486	0.0000000E+000	0.0000000E+000	0.0000000E+000	0.280486	204.271	0.280486	0.00235272
62110.3	0.108853	-0.00324787	0.108901	1.70904	541.336	0.00032191	2.98968	-788.964	-0.701759	3	65	0.0109763	0.100791	0	0.387827	9.17853	-0.273862	9.18261	-1.70904	-701.758	23519.6	23530	-91.709	0.0000000E+000	0.0000000E+000	0.0000000E+000	91.709	0.0000000E+000	0.0000000E+000	0.0000000E+000	-91.709	0.0000000E+000	0.0000000E+000	0.0000000E+000	1.70904	0.0000000E+000	0.0000000E+000	0.0000000E+000	-1.70904	-33.5152	-1.70904	-0.000555017
3338.93	0.128017	0.0161675	0.129033	-7.19792	547.435	0.000247476	2.49351	2948.28	46.2862	3	65	0.0109558	0.0849064	0	0.39567	7.68885	0.971044	7.74993	7.19792	46286.2	366500	369411	-82.8021	0.0000000E+000	0.0000000E+000	0.0000000E+000	82.8021	0.0000000E+000	0.0000000E+000	0.0000000E+000	-82.8021	0.0000000E+000	0.0000000E+000	0.0000000E+000	-7.19792	0.0000000E+000	0.0000000E+000	0.0000000E+000	7.19792	7.91813	7.19792	0.000591768
179.483	0.156862	0.00613347	0.156982	-2.23919	554.348	0.000227642	2.44637	144574	220.702	3	65	0.0108079	0.0688481	0	0.400757	6.36531	0.248891	6.37017	2.23919	220702	5.64438e+06	5.64869e+06	-87.7608	0.0000000E+000	0.0000000E+000	0.0000000E+000	87.7608	0.0000000E+000	0.0000000E+000	0.0000000E+000	-87.7608	0.0000000E+000	0.0000000E+000	0.0000000E+000	-2.23919	0.0000000E+000	0.0000000E+000	0.0000000E+000	2.23919	25.5747	2.23919	0.000169344
9.64507	0.162359	0.00113123	0.162362	-0.399201	561.586	0.000229357	2.11802	1.45869e+07	708.1	3	37	0.0108054	0.0665509	0	0.403876	6.15891	0.0429121	6.15906	0.399201	708099	1.01629e+08	1.01632e+08	-89.6008	0.0000000E+000	0.0000000E+000	0.0000000E+000	89.6008	0.0000000E+000	0.0000000E+000	0.0000000E+000	-89.6008	0.0000000E+000	0.0000000E+000	0.0000000E+000	-0.399201	0.0000000E+000	0.0000000E+000	0.0000000E+000	0.399201	143.524	0.399201	0.000198103
0.518689	0.16506	0.00135059	0.165066	-0.468809	584.565	0.000230238	2.11602	2.27189e+08	15209.8	3	37	0.0108045	0.065456	0	0.412812	6.058	0.0495692	6.0582	0.468809	1.52099e+07	1.85884e+09	1.8589e+09	-89.5312	0.0000000E+000	0.0000000E+000	0.0000000E+000	89.5312	0.0000000E+000	0.0000000E+000	0.0000000E+000	-89.5312	0.0000000E+000	0.0000000E+000	0.0000000E+000	-0.468809	0.0000000E+000	0.0000000E+000	0.0000000E+000	0.468809	122.213	0.468809	0.00293086
149300	0.107795	-0.0156961	0.108931	8.2847	808.078	0.000329441	3.34425	-67.9151	-1.41009	4	65	0.0107534	0.098717	0	0.490973	9.08429	-1.32278	9.18009	-8.2847	-1410.09	9683.9	9786.02	-98.2847	0.0000000E+000	0.0000000E+000	0.0000000E+000	98.2847	0.0000000E+000	0.0000000E+000	0.0000000E+000	-98.2847	0.0000000E+000	0.0000000E+000	0.0000000E+000	8.2847	0.0000000E+000	0.0000000E+000	0.0000000E+000	-8.2847	-6.86759	-8.2847	-0.00071084
8023.44	0.119878	0.0116799	0.120446	-5.56484	813.912	0.000227549	2.65747	1698.33	15.9704	4	65	0.0103025	0.0855367	0	0.497987	8.26337	0.805111	8.3025	5.56484	15970.4	163914	164690	-84.4352	0.0000000E+000	0.0000000E+000	0.0000000E+000	84.4352	0.0000000E+000	0.0000000E+000	0.0000000E+000	-84.4352	0.0000000E+000	0.0000000E+000	0.0000000E+000	-5.56484	0.0000000E+000	0.0000000E+000	0.0000000E+000	5.56484	10.2636	5.56484	0.00104779
431.242	0.153839	0.0108103	0.154218	-4.0196	820.978	0.000236609	2.76144	34139.8	167.752	4	65	0.0100551	0.0652009	0	0.50313	6.46838	0.454536	6.48433	4.0196	167752	2.38723e+06	2.39312e+06	-85.9804	0.0000000E+000	0.0000000E+000	0.0000000E+000	85.9804	0.0000000E+000	0.0000000E+000	0.0000000E+000	-85.9804	0.0000000E+000	0.0000000E+000	0.0000000E+000	-4.0196	0.0000000E+000	0.0000000E+000	0.0000000E+000	4.0196	14.2307	4.0196	0.000786192
23.1963	0.162789	0.0014444	0.162796	-0.508362	828.173	0.000233738	4.08737	4.75022e+06	373.941	4	37	0.0100441	0.0616973	0	0.507851	6.14242	0.0545006	6.14266	0.508362	373941	4.21446e+07	4.21462e+07	-89.4916	0.0000000E+000	0.0000000E+000	0.0000000E+000	89.4916	0.0000000E+000	0.0000000E+000	0.0000000E+000	-89.4916	0.0000000E+000	0.0000000E+000	0.0000000E+000	-0.508362	0.0000000E+000	0.0000000E+000	0.0000000E+000	0.508362	112.704	0.508362	0.000771629
1.24562	0.164561	0.00147146	0.164567	-0.512309	839.313	0.000226809	2.33231	8.68337e+07	6942.18	4	37	0.0100437	0.0610312	0	0.514319	6.0763	0.0543326	6.07655	0.512309	6.94214e+06	7.76381e+08	7.76412e+08	-89.4877	0.0000000E+000	0.0000000E+000	0.0000000E+000	89.4877	0.0000000E+000	0.0000000E+000	0.0000000E+000	-89.4877	0.0000000E+000	0.0000000E+000	0.0000000E+000	-0.512309	0.0000000E+000	0.0000000E+000	0.0000000E+000	0.512309	111.835	0.512309	-0.00036925
0.288924	0.166241	0.000993797	0.166244	-0.342512	872.136	0.000231467	2.26521	5.54293e+08	19808	4	37	0.0100436	0.0604148	0	0.544632	6.01513	0.0359587	6.01524	0.342512	1.98081e+07	3.31346e+09	3.31352e+09	-89.6575	0.0000000E+000	0.0000000E+000	0.0000000E+000	89.6575	0.0000000E+000	0.0000000E+000	0.0000000E+000	-89.6575	0.0000000E+000	0.0000000E+000	0.0000000E+000	-0.342512	0.0000000E+000	0.0000000E+000	0.0000000E+000	0.342512	167.279	0.342512	0.0098764