File: Python/ImpedanceDataOld/dual layer tests _vanadium positive side single-tank symmetric cell_1.6 M total vanadium_ve=5cms_choose the cycle number=3/single-layer_ELAT-H carbon cloth.mpt
EC-Lab ASCII FILE
Nb header lines : 66

Potentio Electrochemical Impedance Spectroscopy

Run on channel : 1 (SN 5680)
User :
Electrode connection : standard
Potential control : Ewe
Ewe ctrl range : min = 0.00 V, max = 5.00 V
Ewe,I filtering : <None>
Safety Limits :
	Do not start on E overload
Channel : Floating
Acquisition started on : 06/29/2023 22:04:26.336
Loaded Setting File :  C:\Data\baili\Electrode Combination Tests\20230622\new tests\positive\AvCarbvers_ve5_30mL_EIS_C01.mpr
Saved on :
	File : ELAT_ve5_30mL_EIS_C01.mpr
	Directory : C:\Data\baili\Electrode Combination Tests\20230622\new tests\positive\
	Host : 192.168.0.1
Device : SP-300 (SN 0955)
Address : 192.168.0.4
EC-Lab for windows v11.46 (software)
Internet server v11.40 (firmware)
Command interpretor v11.46 (firmware)
Electrode material :
Initial state :
Electrolyte :
Comments :
Current amplifier : B-10A5V
Cable : standard
Electrode surface area : 0.001 cm2
Characteristic mass : 0.001 g
Equivalent Weight : 0.000 g/eq.
Density : 0.000 g/cm3
Volume (V) : 0.001 cm3
Cycle Definition : Charge/Discharge alternance
Mode                Single sine
E (V)               0.0000
vs.                 Eoc
tE (h:m:s)          0:00:0.0000
record              0
dI                  0.000
unit dI             mA
dt (s)              0.000
fi                  200.000
unit fi             kHz
ff                  50.000
unit ff             mHz
Nd                  8
Points              per decade
spacing             Logarithmic
Va (mV)             10.0
pw                  0.10
Na                  3
corr                0
E range min (V)     0.000
E range max (V)     5.000
I Range             Auto
Bandwidth           8
nc cycles           3
goto Ns'            0
nr cycles           0
inc. cycle          0

freq/Hz	Re(Z)/Ohm	-Im(Z)/Ohm	|Z|/Ohm	Phase(Z)/deg	time/s	<Ewe>/V	<I>/mA	Cs/uF	Cp/uF	cycle number	I Range	|Ewe|/V	|I|/A	Ns	(Q-Qo)/mA.h	Re(Y)/Ohm-1	Im(Y)/Ohm-1	|Y|/Ohm-1	Phase(Y)/deg	Re(C)/nF	Im(C)/nF	|C|/nF	Phase(C)/deg	Re(M)	Im(M)	|M|	Phase(M)/deg	Re(Permittivity)	Im(Permittivity)	|Permittivity|	Phase(Permittivity)/deg	Re(Resistivity)/Ohm.cm	Im(Resistivity)/Ohm.cm	|Resistivity|/Ohm.cm	Phase(Resistivity)/deg	Re(Conductivity)/mS/cm	Im(Conductivity)/mS/cm	|Conductivity|/mS/cm	Phase(Conductivity)/deg	Tan(Delta)	Loss Angle(Delta)/deg	dq/mA.h
199998	0.100346	-0.0189598	0.102121	10.6996	1.7885	-0.000614484	-20.3228	-41.972	-1.44675	1	65	0.0097529	0.0955029	0	-0.0042382	9.62201	-1.81803	9.79226	-10.6996	-1446.75	7657.02	7792.5	-100.7	0.0000000E+000	0.0000000E+000	0.0000000E+000	100.7	0.0000000E+000	0.0000000E+000	0.0000000E+000	-100.7	0.0000000E+000	0.0000000E+000	0.0000000E+000	10.6996	0.0000000E+000	0.0000000E+000	0.0000000E+000	-10.6996	-5.29256	-10.6996	-0.0042382
14400.2	0.108336	0.00597733	0.108501	-3.15804	6.97248	-0.000591704	-2.47748	1849.03	5.61168	1	65	0.0104535	0.0963452	0	-0.00463189	9.20253	0.507741	9.21653	3.15804	5611.67	101709	101863	-86.842	0.0000000E+000	0.0000000E+000	0.0000000E+000	86.842	0.0000000E+000	0.0000000E+000	0.0000000E+000	-86.842	0.0000000E+000	0.0000000E+000	0.0000000E+000	-3.15804	0.0000000E+000	0.0000000E+000	0.0000000E+000	3.15804	18.1245	3.15804	-0.000372218
1036.66	0.131322	0.0180955	0.132563	-7.84566	13.6294	-0.000688265	-2.84248	8484.24	158.092	1	65	0.0101203	0.0763433	0	-0.0112393	7.47297	1.02974	7.54358	7.84566	158092	1.1473e+06	1.15814e+06	-82.1543	0.0000000E+000	0.0000000E+000	0.0000000E+000	82.1543	0.0000000E+000	0.0000000E+000	0.0000000E+000	-82.1543	0.0000000E+000	0.0000000E+000	0.0000000E+000	-7.84566	0.0000000E+000	0.0000000E+000	0.0000000E+000	7.84566	7.25716	7.84566	-0.000888973
74.6414	0.157824	0.00779124	0.158016	-2.82621	19.8607	-0.000691247	-2.93676	273674	665.341	1	65	0.0100444	0.0635654	0	-0.0168256	6.32077	0.312036	6.32847	2.82621	665342	1.34775e+07	1.3494e+07	-87.1738	0.0000000E+000	0.0000000E+000	0.0000000E+000	87.1738	0.0000000E+000	0.0000000E+000	0.0000000E+000	-87.1738	0.0000000E+000	0.0000000E+000	0.0000000E+000	-2.82621	0.0000000E+000	0.0000000E+000	0.0000000E+000	2.82621	20.2566	2.82621	-0.00085761
5.37311	0.16739	0.00450498	0.167451	-1.54163	26.1759	-0.000680808	-2.90524	6.57509e+06	4758.99	1	37	0.0100455	0.0599905	0	-0.0230947	5.96975	0.160664	5.97191	1.54163	4.75898e+06	1.76828e+08	1.76892e+08	-88.4584	0.0000000E+000	0.0000000E+000	0.0000000E+000	88.4584	0.0000000E+000	0.0000000E+000	0.0000000E+000	-88.4584	0.0000000E+000	0.0000000E+000	0.0000000E+000	-1.54163	0.0000000E+000	0.0000000E+000	0.0000000E+000	1.54163	37.1566	1.54163	-0.00119401
0.386872	0.178948	0.00716364	0.179091	-2.29244	56.0679	-0.000697375	-2.93957	5.74274e+07	91883.4	1	37	0.010043	0.0560773	0	-0.0526145	5.57927	0.223349	5.58374	2.29244	9.18833e+07	2.29525e+09	2.29709e+09	-87.7076	0.0000000E+000	0.0000000E+000	0.0000000E+000	87.7076	0.0000000E+000	0.0000000E+000	0.0000000E+000	-87.7076	0.0000000E+000	0.0000000E+000	0.0000000E+000	-2.29244	0.0000000E+000	0.0000000E+000	0.0000000E+000	2.29244	24.9801	2.29244	-0.00804772
149300	0.10763	-0.0133633	0.108457	7.07757	271.336	-0.000553341	-1.92505	-79.7713	-1.21104	2	65	0.0107374	0.0990019	0	-0.254926	9.15002	-1.13606	9.22028	-7.07757	-1211.04	9753.96	9828.86	-97.0776	0.0000000E+000	0.0000000E+000	0.0000000E+000	97.0776	0.0000000E+000	0.0000000E+000	0.0000000E+000	-97.0776	0.0000000E+000	0.0000000E+000	0.0000000E+000	7.07757	0.0000000E+000	0.0000000E+000	0.0000000E+000	-7.07757	-8.05419	-7.07757	-0.000714757
10753.8	0.116033	0.00740099	0.116268	-3.64959	276.52	-0.000567825	-2.05398	1999.72	8.10261	2	65	0.0102116	0.0878282	0	-0.256288	8.58335	0.547478	8.60079	3.64959	8102.62	127033	127291	-86.3504	0.0000000E+000	0.0000000E+000	0.0000000E+000	86.3504	0.0000000E+000	0.0000000E+000	0.0000000E+000	-86.3504	0.0000000E+000	0.0000000E+000	0.0000000E+000	-3.64959	0.0000000E+000	0.0000000E+000	0.0000000E+000	3.64959	15.678	3.64959	-0.000575851
773.765	0.141593	0.0181603	0.142753	-7.30872	282.622	-0.000662857	-2.77448	11326.3	183.302	2	65	0.010165	0.0712071	0	-0.261237	6.94821	0.891161	7.00513	7.30872	183302	1.42917e+06	1.44088e+06	-82.6913	0.0000000E+000	0.0000000E+000	0.0000000E+000	82.6913	0.0000000E+000	0.0000000E+000	0.0000000E+000	-82.6913	0.0000000E+000	0.0000000E+000	0.0000000E+000	-7.30872	0.0000000E+000	0.0000000E+000	0.0000000E+000	7.30872	7.79681	7.30872	-0.000363705
55.7312	0.164108	0.00657871	0.164239	-2.29563	288.844	-0.000656538	-2.91943	434091	696.479	2	65	0.010116	0.0615928	0	-0.265935	6.08378	0.243886	6.08867	2.29563	696479	1.73738e+07	1.73878e+07	-87.7044	0.0000000E+000	0.0000000E+000	0.0000000E+000	87.7044	0.0000000E+000	0.0000000E+000	0.0000000E+000	-87.7044	0.0000000E+000	0.0000000E+000	0.0000000E+000	-2.29563	0.0000000E+000	0.0000000E+000	0.0000000E+000	2.29563	24.9452	2.29563	-0.000623209
4.01052	0.173129	0.00470817	0.173193	-1.55775	295.317	-0.000674256	-2.87752	8.42882e+06	6228.89	2	37	0.0101179	0.0584195	0	-0.271088	5.77177	0.156961	5.7739	1.55775	6.2289e+06	2.29049e+08	2.29134e+08	-88.4422	0.0000000E+000	0.0000000E+000	0.0000000E+000	88.4422	0.0000000E+000	0.0000000E+000	0.0000000E+000	-88.4422	0.0000000E+000	0.0000000E+000	0.0000000E+000	-1.55775	0.0000000E+000	0.0000000E+000	0.0000000E+000	1.55775	36.772	1.55775	-0.000983095
0.288924	0.185264	0.00658888	0.185381	-2.03686	335.161	-0.00067282	-2.90971	8.36036e+07	105613	2	37	0.0101177	0.0545779	0	-0.295045	5.39088	0.191726	5.39429	2.03686	1.05613e+08	2.96959e+09	2.97147e+09	-87.9631	0.0000000E+000	0.0000000E+000	0.0000000E+000	87.9631	0.0000000E+000	0.0000000E+000	0.0000000E+000	-87.9631	0.0000000E+000	0.0000000E+000	0.0000000E+000	-2.03686	0.0000000E+000	0.0000000E+000	0.0000000E+000	2.03686	28.1177	2.03686	-0.00339075
111453	0.111775	-0.00908501	0.112143	4.64676	540.21	-0.000578786	-2.05454	-157.182	-1.03158	3	65	0.0109462	0.0976091	0	-0.503247	8.88784	-0.7224	8.91715	-4.64676	-1031.58	12691.8	12733.7	-94.6468	0.0000000E+000	0.0000000E+000	0.0000000E+000	94.6468	0.0000000E+000	0.0000000E+000	0.0000000E+000	-94.6468	0.0000000E+000	0.0000000E+000	0.0000000E+000	4.64676	0.0000000E+000	0.0000000E+000	0.0000000E+000	-4.64676	-12.3032	-4.64676	-0.000285865
8023.44	0.120624	0.00868028	0.120935	-4.11601	545.468	-0.000673072	-2.40799	2285.21	11.773	3	65	0.0102262	0.0845594	0	-0.504074	8.24755	0.593508	8.26887	4.11601	11773	163600	164023	-85.884	0.0000000E+000	0.0000000E+000	0.0000000E+000	85.884	0.0000000E+000	0.0000000E+000	0.0000000E+000	-85.884	0.0000000E+000	0.0000000E+000	0.0000000E+000	-4.11601	0.0000000E+000	0.0000000E+000	0.0000000E+000	4.11601	13.8963	4.11601	-0.00126659
577.965	0.148624	0.0174808	0.149649	-6.70815	551.613	-0.000654245	-2.49295	15752.8	214.948	3	65	0.0103766	0.0693396	0	-0.508363	6.63658	0.780576	6.68232	6.70815	214948	1.82752e+06	1.84012e+06	-83.2918	0.0000000E+000	0.0000000E+000	0.0000000E+000	83.2918	0.0000000E+000	0.0000000E+000	0.0000000E+000	-83.2918	0.0000000E+000	0.0000000E+000	0.0000000E+000	-6.70815	0.0000000E+000	0.0000000E+000	0.0000000E+000	6.70815	8.50216	6.70815	-0.000518108
41.6112	0.167662	0.00596894	0.167769	-2.03892	557.806	-0.000657172	-2.76796	640786	811.121	3	65	0.0103485	0.0616831	0	-0.512505	5.95682	0.212068	5.96059	2.03892	811122	2.27837e+07	2.27981e+07	-87.9611	0.0000000E+000	0.0000000E+000	0.0000000E+000	87.9611	0.0000000E+000	0.0000000E+000	0.0000000E+000	-87.9611	0.0000000E+000	0.0000000E+000	0.0000000E+000	-2.03892	0.0000000E+000	0.0000000E+000	0.0000000E+000	2.03892	28.0891	2.03892	-0.00036629
2.99674	0.176563	0.00498869	0.176634	-1.61843	564.713	-0.000667331	-2.85161	1.06459e+07	8492	3	37	0.0103492	0.0585914	0	-0.516245	5.65918	0.159897	5.66143	1.61843	8.49198e+06	3.00555e+08	3.00675e+08	-88.3816	0.0000000E+000	0.0000000E+000	0.0000000E+000	88.3816	0.0000000E+000	0.0000000E+000	0.0000000E+000	-88.3816	0.0000000E+000	0.0000000E+000	0.0000000E+000	-1.61843	0.0000000E+000	0.0000000E+000	0.0000000E+000	1.61843	35.3927	1.61843	0.000304416
0.215779	0.189018	0.00597838	0.189113	-1.81158	617.884	-0.000664168	-2.7749	1.23375e+08	123297	3	37	0.0103442	0.0546988	0	-0.564381	5.28521	0.167164	5.28786	1.81158	1.23297e+08	3.89828e+09	3.90023e+09	-88.1884	0.0000000E+000	0.0000000E+000	0.0000000E+000	88.1884	0.0000000E+000	0.0000000E+000	0.0000000E+000	-88.1884	0.0000000E+000	0.0000000E+000	0.0000000E+000	-1.81158	0.0000000E+000	0.0000000E+000	0.0000000E+000	1.81158	31.6169	1.81158	-0.0187395
83200.3	0.114025	-0.00576647	0.11417	2.8951	809.247	-0.000561525	-2.52332	-331.73	-0.846249	4	65	0.0109758	0.096135	0	-0.669179	8.74766	-0.442388	8.75884	-2.8951	-846.249	16733.5	16754.9	-92.8951	0.0000000E+000	0.0000000E+000	0.0000000E+000	92.8951	0.0000000E+000	0.0000000E+000	0.0000000E+000	-92.8951	0.0000000E+000	0.0000000E+000	0.0000000E+000	2.8951	0.0000000E+000	0.0000000E+000	0.0000000E+000	-2.8951	-19.7737	-2.8951	-0.000274106
5992.11	0.12379	0.0101183	0.124203	-4.6728	814.537	-0.000652549	-2.87546	2625.03	17.4213	4	65	0.0103954	0.0836969	0	-0.674716	8.02456	0.655904	8.05132	4.6728	17421.3	213138	213849	-85.3272	0.0000000E+000	0.0000000E+000	0.0000000E+000	85.3272	0.0000000E+000	0.0000000E+000	0.0000000E+000	-85.3272	0.0000000E+000	0.0000000E+000	0.0000000E+000	-4.6728	0.0000000E+000	0.0000000E+000	0.0000000E+000	4.6728	12.2344	4.6728	-0.000353445
431.242	0.154067	0.0162517	0.154922	-6.02155	820.763	-0.00065225	-2.52835	22709.2	249.904	4	65	0.0102538	0.0661872	0	-0.678763	6.41926	0.677133	6.45487	6.02155	249904	2.3691e+06	2.38225e+06	-83.9784	0.0000000E+000	0.0000000E+000	0.0000000E+000	83.9784	0.0000000E+000	0.0000000E+000	0.0000000E+000	-83.9784	0.0000000E+000	0.0000000E+000	0.0000000E+000	-6.02155	0.0000000E+000	0.0000000E+000	0.0000000E+000	6.02155	9.48006	6.02155	-0.000707231
179.483	0.162345	0.011621	0.16276	-4.09437	822.834	-0.000661888	-2.40314	76305.1	388.994	4	65	0.0102369	0.0628953	0	-0.679378	6.12832	0.438678	6.144	4.09437	388994	5.43424e+06	5.44814e+06	-85.9056	0.0000000E+000	0.0000000E+000	0.0000000E+000	85.9056	0.0000000E+000	0.0000000E+000	0.0000000E+000	-85.9056	0.0000000E+000	0.0000000E+000	0.0000000E+000	-4.09437	0.0000000E+000	0.0000000E+000	0.0000000E+000	4.09437	13.97	4.09437	-0.000260643