File: Python/Data/GoldElectrode/240313/240313-CVEIS_PostActivation-Fe2Fe3_5mM-HCl1M-2000RPM-Ag_AgCl_BLF8-Au_RDE_02_PEIS_C15.mpt
EC-Lab ASCII FILE
Nb header lines : 66

Potentio Electrochemical Impedance Spectroscopy

Run on channel : 15 (SN 19485)
User :
Electrode connection : standard
Potential control : Ewe
Ewe ctrl range : min = -1.00 V, max = 1.00 V
Ewe,I filtering : <None>
Safety Limits :
	Do not start on E overload
Channel : Floating
Acquisition started on : 03/13/2024 18:03:19.717
Loaded Setting File :  NONE
Saved on :
	File : 240313-CVEIS_PostActivation-Fe2Fe3_5mM-HCl1M-2000RPM-Ag_AgCl_BLF8-Au_RDE_02_PEIS_C15.mpr
	Directory : C:\Data\mathias\GoldElectrode\
	Host : 192.168.0.1
Device : VMP-300 (SN 0826)
Address : USB
EC-Lab for windows v11.52 (software)
Internet server v11.52 (firmware)
Command interpretor v11.52 (firmware)
Electrode material :
Initial state :
Electrolyte :
Comments :
Cable : special
Electrode surface area : 0.001 cm²
Characteristic mass : 0.001 g
Equivalent Weight : 0.000 g/eq.
Density : 0.000 g/cm3
Volume (V) : 0.001 cm³
Record EIS quality indicators
Cycle Definition : Charge/Discharge alternance
Mode                Single sine
E (V)               0.0000
vs.                 Eoc
tE (h:m:s)          0:01:0.0000
record              0
dI                  0.000
unit dI             mA
dt (s)              0.000
fi                  400.000
unit fi             kHz
ff                  100.000
unit ff             mHz
Nd                  10
Points              per decade
spacing             Logarithmic
Va (mV)             5.0
pw                  0.10
Na                  3
corr                0
E range min (V)     -1.000
E range max (V)     1.000
I Range             Auto
Bandwidth           8
nc cycles           0
goto Ns'            0
nr cycles           0
inc. cycle          1

freq/Hz	Re(Z)/Ohm	-Im(Z)/Ohm	|Z|/Ohm	Phase(Z)/deg	time/s	<Ewe>/V	<I>/mA	Cs/µF	Cp/µF	cycle number	I Range	|Ewe|/V	|I|/A	Ns	(Q-Qo)/mA.h	THD Ewe/%	NSD Ewe/%	NSR Ewe/%	|Ewe h2|/V	|Ewe h3|/V	|Ewe h4|/V	|Ewe h5|/V	|Ewe h6|/V	|Ewe h7|/V	THD I/%	NSD I/%	NSR I/%	|I h2|/A	|I h3|/A	|I h4|/A	|I h5|/A	|I h6|/A	|I h7|/A	Re(Y)/Ohm-1	Im(Y)/Ohm-1	|Y|/Ohm-1	Phase(Y)/deg	Re(C)/nF	Im(C)/nF	|C|/nF	Phase(C)/deg	Re(M)	Im(M)	|M|	Phase(M)/deg	Re(Permittivity)	Im(Permittivity)	|Permittivity|	Phase(Permittivity)/deg	Re(Resistivity)/Ohm.cm	Im(Resistivity)/Ohm.cm	|Resistivity|/Ohm.cm	Phase(Resistivity)/deg	Re(Conductivity)/mS/cm	Im(Conductivity)/mS/cm	|Conductivity|/mS/cm	Phase(Conductivity)/deg	Tan(Delta)	Loss Angle(Delta)/deg	dq/mA.h
399996	3.24034	1.39484	3.5278	-23.2899	203.253	0.439658	-0.00578722	0.28526	0.0445943	1	38	0.00456647	0.00129442	0	3.9924e-05	-1	-1	-1	0	0	0	0	0	0	-1	-1	-1	0	0	0	0	0	0	0.260365	0.112077	0.283463	23.2899	44.5943	103.597	112.787	-66.7101	0.0000000E+000	0.0000000E+000	0.0000000E+000	66.7101	0.0000000E+000	0.0000000E+000	0.0000000E+000	-66.7101	0.0000000E+000	0.0000000E+000	0.0000000E+000	-23.2899	0.0000000E+000	0.0000000E+000	0.0000000E+000	23.2899	2.3231	66.7101	3.9924e-05
126447	3.1878	0.364434	3.20856	-6.52182	209.427	0.439672	-0.00316698	3.45375	0.0445561	1	37	0.00521506	0.00162536	0	3.58268e-05	-1	-1	-1	0	0	0	0	0	0	-1	-1	-1	0	0	0	0	0	0	0.309649	0.0353995	0.311666	6.52182	44.5561	389.744	392.283	-83.4782	0.0000000E+000	0.0000000E+000	0.0000000E+000	83.4782	0.0000000E+000	0.0000000E+000	0.0000000E+000	-83.4782	0.0000000E+000	0.0000000E+000	0.0000000E+000	-6.52182	0.0000000E+000	0.0000000E+000	0.0000000E+000	6.52182	8.74727	83.4782	-1.82357e-06
39971.8	3.37092	0.650944	3.4332	-10.9296	215.168	0.439678	0.00392391	6.11678	0.219893	1	37	0.00519474	0.00151309	0	3.78178e-05	1.15663	0.718595	20.4821	2.33598e-05	2.22669e-05	2.19829e-05	1.41608e-05	2.93221e-05	2.17408e-05	0.555594	0.389613	11.6861	4.09486e-06	2.41022e-06	1.73915e-06	3.6593e-06	4.30276e-06	2.01402e-06	0.28599	0.0552262	0.291274	10.9296	219.893	1138.72	1159.76	-79.0704	0.0000000E+000	0.0000000E+000	0.0000000E+000	79.0704	0.0000000E+000	0.0000000E+000	0.0000000E+000	-79.0704	0.0000000E+000	0.0000000E+000	0.0000000E+000	-10.9296	0.0000000E+000	0.0000000E+000	0.0000000E+000	10.9296	5.17852	79.0704	-2.41667e-08
12637.3	3.64658	1.36071	3.89218	-20.4629	220.908	0.439655	0.00169057	9.2555	1.13121	1	37	0.00511125	0.00131321	0	4.51624e-05	1.1714	0.506033	21.3701	2.57296e-05	1.91503e-05	1.27014e-05	3.44725e-05	2.09004e-05	2.29847e-05	0.739139	0.311764	13.3905	3.72482e-06	3.86574e-06	2.32303e-06	5.05143e-06	4.22975e-06	2.63591e-06	0.240713	0.0898212	0.256925	20.4629	1131.21	3031.55	3235.73	-69.5371	0.0000000E+000	0.0000000E+000	0.0000000E+000	69.5371	0.0000000E+000	0.0000000E+000	0.0000000E+000	-69.5371	0.0000000E+000	0.0000000E+000	0.0000000E+000	-20.4629	0.0000000E+000	0.0000000E+000	0.0000000E+000	20.4629	2.67991	69.5371	-1.74177e-06
3993.72	4.16475	3.53623	5.46352	-40.3341	227.256	0.439553	0.00215211	11.2694	4.72104	1	38	0.00529596	0.000969331	0	4.7848e-05	1.07759	0.711202	19.0627	1.73298e-05	1.23658e-05	2.57615e-05	3.37462e-05	2.59816e-05	9.48582e-06	0.210337	0.0860406	3.03782	1.35168e-06	3.26862e-07	4.5828e-07	1.00749e-06	4.82978e-07	6.18263e-07	0.139522	0.118466	0.183032	40.3341	4721.04	5560.15	7294.07	-49.6659	0.0000000E+000	0.0000000E+000	0.0000000E+000	49.6659	0.0000000E+000	0.0000000E+000	0.0000000E+000	-49.6659	0.0000000E+000	0.0000000E+000	0.0000000E+000	-40.3341	0.0000000E+000	0.0000000E+000	0.0000000E+000	40.3341	1.17774	49.6659	9.32208e-07
1262.98	5.70183	9.60685	11.1715	-59.3101	232.787	0.439548	0.00232898	13.1173	9.70024	1	38	0.0048137	0.000430891	0	5.17167e-05	1.17697	0.573954	21.4135	3.00216e-05	1.96265e-05	8.08193e-06	2.06832e-05	2.03638e-05	2.00879e-05	0.63951	0.224077	6.81518	2.0052e-06	1.13226e-06	6.40764e-07	9.29711e-07	7.75437e-07	4.35785e-07	0.0456869	0.0769764	0.0895135	59.3101	9700.23	5757.26	11280.1	-30.6899	0.0000000E+000	0.0000000E+000	0.0000000E+000	30.6899	0.0000000E+000	0.0000000E+000	0.0000000E+000	-30.6899	0.0000000E+000	0.0000000E+000	0.0000000E+000	-59.3101	0.0000000E+000	0.0000000E+000	0.0000000E+000	59.3101	0.593518	30.6899	4.24377e-07
399.106	12.4296	25.3502	28.2335	-63.8806	238.325	0.439548	0.00477928	15.7308	12.6819	1	38	0.00462887	0.000163949	0	5.74928e-05	1.30194	0.853381	23.4777	2.55958e-05	1.58888e-05	1.98801e-05	2.82381e-05	2.58887e-05	2.09904e-05	0.996338	0.436465	17.8932	6.57758e-07	6.61206e-07	6.77854e-07	4.27943e-07	5.49649e-07	7.19712e-07	0.0155929	0.0318019	0.0354189	63.8806	12681.9	6218.13	14124.3	-26.1194	0.0000000E+000	0.0000000E+000	0.0000000E+000	26.1194	0.0000000E+000	0.0000000E+000	0.0000000E+000	-26.1194	0.0000000E+000	0.0000000E+000	0.0000000E+000	-63.8806	0.0000000E+000	0.0000000E+000	0.0000000E+000	63.8806	0.490315	26.1194	1.4879e-06
126.171	39.6784	54.2149	67.1835	-53.8006	244.1	0.439562	0.00345395	23.2671	15.1514	1	39	0.00462625	6.88599e-05	0	6.31119e-05	1.26987	0.519079	23.3546	2.76821e-05	1.4397e-05	1.2798e-05	1.66677e-05	2.7855e-05	3.20099e-05	1.06778	0.637422	18.5885	4.47808e-07	1.28544e-07	2.26703e-07	2.19908e-07	2.87762e-07	3.70467e-07	0.0087908	0.0120114	0.0148846	53.8006	15151.4	11088.9	18775.8	-36.1994	0.0000000E+000	0.0000000E+000	0.0000000E+000	36.1994	0.0000000E+000	0.0000000E+000	0.0000000E+000	-36.1994	0.0000000E+000	0.0000000E+000	0.0000000E+000	-53.8006	0.0000000E+000	0.0000000E+000	0.0000000E+000	53.8006	0.731872	36.1994	1.15135e-06
39.8851	97.3145	71.1705	120.563	-36.1797	249.504	0.439565	0.00353148	56.0672	19.5382	1	39	0.00458731	3.80492e-05	0	6.8392e-05	1.44314	0.479406	23.258	1.69313e-05	2.36657e-05	2.62198e-05	2.6469e-05	3.09682e-05	1.52865e-05	2.13917	0.74885	34.3315	1.94604e-07	3.14978e-07	4.09808e-07	1.68106e-07	5.06584e-07	1.29692e-07	0.00669502	0.00489637	0.00829444	36.1797	19538.2	26715.4	33097.6	-53.8203	0.0000000E+000	0.0000000E+000	0.0000000E+000	53.8203	0.0000000E+000	0.0000000E+000	0.0000000E+000	-53.8203	0.0000000E+000	0.0000000E+000	0.0000000E+000	-36.1797	0.0000000E+000	0.0000000E+000	0.0000000E+000	36.1797	1.36734	53.8203	1.05612e-06
12.6144	154.5	66.0275	168.018	-23.14	255.142	0.439571	0.00361586	191.087	29.51	1	40	0.00460321	2.73972e-05	0	7.41008e-05	1.42845	1.08168	29.7618	2.88589e-05	1.87094e-05	2.75428e-05	1.47595e-05	2.96021e-05	1.72253e-05	0.474103	0.181702	6.70425	7.75275e-08	5.46789e-08	3.51789e-08	4.27192e-08	5.05817e-08	2.67063e-08	0.00547292	0.00233891	0.00595175	23.14	29510	69051.6	75093	-66.86	0.0000000E+000	0.0000000E+000	0.0000000E+000	66.86	0.0000000E+000	0.0000000E+000	0.0000000E+000	-66.86	0.0000000E+000	0.0000000E+000	0.0000000E+000	-23.14	0.0000000E+000	0.0000000E+000	0.0000000E+000	23.14	2.33994	66.86	1.35052e-06
3.98597	199.448	59.8808	208.243	-16.7115	262.327	0.439604	0.00375109	666.804	55.1358	1	40	0.0045899	2.20411e-05	0	8.1374e-05	1.35019	0.901183	21.4314	1.52585e-05	1.7462e-05	2.35239e-05	2.475e-05	2.43231e-05	3.24561e-05	0.501419	0.341199	6.06044	6.70627e-08	3.55532e-08	1.83974e-08	4.92708e-08	3.16341e-08	4.04825e-08	0.00459927	0.00138085	0.00480209	16.7115	55135.8	183643	191741	-73.2885	0.0000000E+000	0.0000000E+000	0.0000000E+000	73.2885	0.0000000E+000	0.0000000E+000	0.0000000E+000	-73.2885	0.0000000E+000	0.0000000E+000	0.0000000E+000	-16.7115	0.0000000E+000	0.0000000E+000	0.0000000E+000	16.7115	3.33075	73.2885	1.82893e-06
1.25968	252.782	47.5145	257.209	-10.6455	280.271	0.439561	0.00408267	2659.1	90.7433	1	40	0.00459449	1.78629e-05	0	0.000101039	0.548303	0.270428	11.3241	8.23326e-06	1.12269e-05	8.5572e-06	9.51133e-06	8.28349e-06	1.09086e-05	0.474663	0.200745	4.3133	7.85723e-08	1.81367e-08	1.18864e-08	9.84117e-09	1.5301e-08	1.11776e-08	0.00382097	0.000718214	0.00388789	10.6455	90743.3	482764	491218	-79.3545	0.0000000E+000	0.0000000E+000	0.0000000E+000	79.3545	0.0000000E+000	0.0000000E+000	0.0000000E+000	-79.3545	0.0000000E+000	0.0000000E+000	0.0000000E+000	-10.6455	0.0000000E+000	0.0000000E+000	0.0000000E+000	10.6455	5.32011	79.3545	6.47922e-06
0.398211	283.792	19.5746	284.466	-3.94574	334.914	0.439569	0.00468742	20418	96.6803	1	41	0.00459218	1.61431e-05	0	0.000168797	0.390011	0.273421	8.03713	9.30279e-06	6.58497e-06	4.28696e-06	7.42575e-06	6.80551e-06	6.56701e-06	0.435773	0.236433	0.769325	6.5831e-08	1.29861e-08	8.74708e-09	1.51989e-08	4.40145e-09	6.48392e-09	0.00350702	0.000241897	0.00351535	3.94574	96680.4	1.40167e+06	1.405e+06	-86.0543	0.0000000E+000	0.0000000E+000	0.0000000E+000	86.0543	0.0000000E+000	0.0000000E+000	0.0000000E+000	-86.0543	0.0000000E+000	0.0000000E+000	0.0000000E+000	-3.94574	0.0000000E+000	0.0000000E+000	0.0000000E+000	3.94574	14.498	86.0543	2.23641e-05
0.125939	309.039	7.20485	309.123	-1.33554	497.719	0.439566	0.00653664	175403	95.2847	1	41	0.00459596	1.48677e-05	0	0.000425292	0.307727	0.210697	4.51835	7.21407e-06	8.07877e-06	3.30655e-06	3.36598e-06	2.73065e-06	5.81344e-06	0.405774	0.504412	0.608412	5.52701e-08	1.32946e-08	6.70742e-09	1.50769e-08	6.30665e-09	5.83616e-09	0.00323408	7.53984e-05	0.00323496	1.33554	95284.5	4.08706e+06	4.08817e+06	-88.6645	0.0000000E+000	0.0000000E+000	0.0000000E+000	88.6645	0.0000000E+000	0.0000000E+000	0.0000000E+000	-88.6645	0.0000000E+000	0.0000000E+000	0.0000000E+000	-1.33554	0.0000000E+000	0.0000000E+000	0.0000000E+000	1.33554	42.8932	88.6645	9.00163e-05
0.0999518	315.989	5.96753	316.045	-1.08192	559.122	0.439546	0.0071677	266830	95.1319	1	41	0.00459229	1.45305e-05	0	0.000548555	0.279408	0.222806	4.68624	7.11849e-06	2.95056e-06	5.9304e-06	3.89241e-06	4.38499e-06	4.20303e-06	0.498358	0.558129	0.544828	6.91676e-08	1.43667e-08	6.32023e-09	1.21292e-08	5.39972e-09	3.36262e-09	0.00316354	5.97443e-05	0.00316411	1.08192	95131.9	5.03736e+06	5.03826e+06	-88.9181	0.0000000E+000	0.0000000E+000	0.0000000E+000	88.9181	0.0000000E+000	0.0000000E+000	0.0000000E+000	-88.9181	0.0000000E+000	0.0000000E+000	0.0000000E+000	-1.08192	0.0000000E+000	0.0000000E+000	0.0000000E+000	1.08192	52.9513	88.9181	0.000123262