File: Python/Data/GoldElectrode/240313/240313-CVEIS_PostActivation-Fe2Fe3_5mM-HCl1M-1225RPM-Ag_AgCl_BLF8-Au_RDE_01_CV_C15.mpt
EC-Lab ASCII FILE
Nb header lines : 60

Cyclic Voltammetry

Run on channel : 15 (SN 19485)
User :
Electrode connection : standard
Potential control : Ewe
Ewe ctrl range : min = -1.00 V, max = 1.00 V
Ewe,I filtering : <None>
Safety Limits :
	Do not start on E overload
Channel : Floating
Acquisition started on : 03/13/2024 17:49:36.773
Loaded Setting File :  NONE
Saved on :
	File : 240313-CVEIS_PostActivation-Fe2Fe3_5mM-HCl1M-1225RPM-Ag_AgCl_BLF8-Au_RDE_01_CV_C15.mpr
	Directory : C:\Data\mathias\GoldElectrode\
	Host : 192.168.0.1
Device : VMP-300 (SN 0826)
Address : USB
EC-Lab for windows v11.52 (software)
Internet server v11.52 (firmware)
Command interpretor v11.52 (firmware)
Electrode material :
Initial state :
Electrolyte :
Comments :
Cable : special
Electrode surface area : 0.001 cm²
Characteristic mass : 0.001 g
Equivalent Weight : 0.000 g/eq.
Density : 0.000 g/cm3
Volume (V) : 0.001 cm³
Record EIS quality indicators
Cycle Definition : Charge/Discharge alternance
Ei (V)              0.000
vs.                 Eoc
dE/dt               20.000
dE/dt unit          mV/s
E1 (V)              0.700
vs.                 Ref
Step percent        50
N                   10
E range min (V)     -1.000
E range max (V)     1.000
I Range             Auto
I Range min         Unset
I Range max         Unset
I Range init        Unset
Bandwidth           8
E2 (V)              0.000
vs.                 Ref
nc cycles           1
Reverse Scan        1
Ef (V)              0.000
vs.                 Eoc

mode	ox/red	error	control changes	counter inc.	time/s	control/V	Ewe/V	<I>/mA	cycle number	(Q-Qo)/C	I Range	step time/s	P/W
2	1	0	0	0	0.000000000000000E+000	0.444786	0.445232	0.00808229	1	0.0000000E+000	42	0.000000000000000E+000	3.5985e-06
2	1	0	1	0	1.1682	0.468149	0.467909	0.0917443	1	5.8801e-05	41	1.1544	4.2928e-05
2	1	0	1	0	2.3477	0.491739	0.491347	0.17103	1	0.000214902	40	2.3339	8.40352e-05
2	1	0	1	0	3.4971	0.514728	0.514483	0.237511	1	0.000451413	40	3.4833	0.000122195
2	1	0	1	0	4.6466	0.537717	0.5374	0.29355	1	0.000758266	40	4.6328	0.000157754
2	1	0	1	0	5.796	0.560705	0.560556	0.339919	1	0.00112334	40	5.7822	0.000190544
2	1	0	1	0	6.9455	0.583695	0.583238	0.378683	1	0.00153711	40	6.9317	0.000220862
2	1	0	1	0	8.095	0.606684	0.606523	0.412788	1	0.00199302	40	8.0812	0.000250365
2	1	0	1	0	9.2444	0.629673	0.629374	0.441875	1	0.00248439	40	9.2306	0.000278105
2	1	0	1	0	10.3939	0.652662	0.652318	0.469022	1	0.00300798	40	10.3801	0.000305951
2	1	0	1	0	11.5433	0.675651	0.675362	0.492227	1	0.00356034	40	11.5295	0.000332432
2	1	0	1	0	12.6928	0.69864	0.698251	0.516379	1	0.00414119	40	12.679	0.000360562
2	1	0	1	0	13.8003	0.67925	0.678937	0.508571	1	0.00470929	40	13.7865	0.000345288
2	1	0	1	0	14.9497	0.656261	0.65591	0.49822	1	0.00528755	40	14.9359	0.000326787
2	1	0	1	0	16.0992	0.633272	0.632882	0.484611	1	0.005852	40	16.0854	0.000306702
2	1	0	1	0	17.2486	0.610282	0.610078	0.467925	1	0.00640018	40	17.2348	0.000285471
2	1	0	1	0	18.3981	0.587293	0.586928	0.446899	1	0.00692702	40	18.3843	0.000262298
2	1	0	1	0	19.5475	0.564304	0.564042	0.417276	1	0.00742439	40	19.5337	0.000235361
2	1	0	1	0	20.697	0.541315	0.541116	0.3759	1	0.00788148	40	20.6832	0.000203406
2	1	0	1	0	21.8464	0.518326	0.518107	0.316221	1	0.00828044	40	21.8326	0.000163837
2	1	0	1	0	22.9959	0.495337	0.495025	0.235185	1	0.00859875	40	22.9821	0.000116423
2	1	0	1	0	24.1454	0.472347	0.471884	0.133425	1	0.00881126	40	24.1316	6.29611e-05
2	1	0	1	0	25.3248	0.448759	0.448563	0.0202865	1	0.00890117	41	25.311	9.09976e-06
2	0	0	1	0	26.4742	0.42577	0.425513	-0.0774808	1	0.00886633	41	0.8995	-3.29691e-05
2	0	0	1	0	27.6537	0.402181	0.401994	-0.153259	1	0.00872713	40	2.079	-6.16093e-05
2	0	0	1	0	28.8031	0.379192	0.378988	-0.205134	1	0.00851788	40	3.2284	-7.77434e-05
2	0	0	1	0	29.9526	0.356203	0.355936	-0.240377	1	0.00825876	40	4.3779	-8.55586e-05
2	0	0	1	0	31.102	0.333214	0.332958	-0.26454	1	0.00796634	40	5.5273	-8.80805e-05
2	0	0	1	0	32.2515	0.310225	0.309746	-0.281045	1	0.0076508	40	6.6768	-8.70527e-05
2	0	0	1	0	33.401	0.287235	0.286937	-0.293511	1	0.0073189	40	7.8263	-8.42193e-05
2	0	0	1	0	34.5504	0.264247	0.264034	-0.302269	1	0.0069748	40	8.9757	-7.98092e-05
2	0	0	1	0	35.6999	0.241258	0.241058	-0.310059	1	0.00662093	40	10.1252	-7.47421e-05
2	0	0	1	0	36.8493	0.218269	0.217768	-0.317279	1	0.00625875	40	11.2746	-6.90931e-05
2	0	0	1	0	37.9988	0.19528	0.19493	-0.322788	1	0.00588972	40	12.4241	-6.29211e-05
2	0	0	1	0	39.1482	0.172291	0.172075	-0.326766	1	0.00551441	40	13.5735	-5.62283e-05
2	0	0	1	0	40.2977	0.149302	0.148938	-0.330536	1	0.00513359	40	14.723	-4.92294e-05
2	0	0	1	0	41.4471	0.126313	0.126249	-0.333226	1	0.00475034	40	15.8724	-4.20693e-05
2	0	0	1	0	42.5966	0.103323	0.10322	-0.335249	1	0.00436418	40	17.0219	-3.46044e-05
2	0	0	1	0	43.746	0.0803343	0.0802143	-0.336498	1	0.00397618	40	18.1713	-2.69919e-05
2	0	0	1	0	44.8955	0.0573453	0.0570939	-0.33911	1	0.00358625	40	19.3208	-1.93611e-05
2	0	0	1	0	46.045	0.0343544	0.0340353	-0.339561	1	0.0031946	40	20.4703	-1.15571e-05
2	0	0	1	0	47.1944	0.0113671	0.0111994	-0.340408	1	0.00280222	40	21.6197	-3.81235e-06
2	0	0	1	1	48.3019	0.0107674	0.0104828	-0.340782	1	0.00242437	40	22.7272	-3.57233e-06
2	0	0	1	1	49.4514	0.0337565	0.033454	-0.338455	1	0.00203475	40	23.8767	-1.13227e-05
2	0	0	1	1	50.6008	0.0567456	0.0565036	-0.338721	1	0.00164724	40	25.0261	-1.9139e-05
2	0	0	1	1	51.7503	0.0797346	0.0796121	-0.33522	1	0.00126068	40	26.1756	-2.66875e-05
2	0	0	1	1	52.8997	0.102724	0.102365	-0.331107	1	0.0008786	40	27.325	-3.38937e-05
2	0	0	1	1	54.0492	0.125713	0.125239	-0.328788	1	0.0005009	40	28.4745	-4.11772e-05
2	0	0	1	1	55.1986	0.148702	0.148534	-0.321768	1	0.000128932	40	29.6239	-4.77935e-05
2	0	0	1	1	56.3481	0.171691	0.171306	-0.315117	1	-0.000236522	40	30.7734	-5.39815e-05
2	0	0	1	1	57.4976	0.194682	0.194351	-0.306772	1	-0.000593117	40	31.9229	-5.96216e-05
2	0	0	1	1	58.647	0.217669	0.217529	-0.296766	1	-0.000938841	40	33.0723	-6.45552e-05
2	0	0	1	1	59.7964	0.240656	0.240153	-0.286424	1	-0.00127278	40	34.2217	-6.87857e-05
2	0	0	1	1	60.9459	0.263647	0.263445	-0.274597	1	-0.00159363	40	35.3712	-7.23412e-05
2	0	0	1	1	62.0954	0.286636	0.286532	-0.263669	1	-0.00190069	40	36.5207	-7.55496e-05
2	0	0	1	1	63.2448	0.309625	0.309109	-0.255358	1	-0.00219748	40	37.6701	-7.89333e-05
2	0	0	1	1	64.3943	0.332614	0.332269	-0.244841	1	-0.00248407	40	38.8196	-8.13531e-05
2	0	0	1	1	65.5437	0.355603	0.355335	-0.225033	1	-0.00275402	40	39.969	-7.99622e-05
2	0	0	1	1	66.6932	0.378593	0.378301	-0.190187	1	-0.0029932	40	41.1185	-7.19479e-05
2	0	0	1	1	67.8426	0.401582	0.401341	-0.137578	1	-0.00318195	40	42.2679	-5.52157e-05
2	0	0	1	1	68.9921	0.424571	0.424277	-0.0660603	1	-0.00329961	40	43.4174	-2.80279e-05
2	1	0	1	1	70.1316	0.447362	0.447244	0.0234128	2	-0.00332471	41	0.2599	1.04712e-05
2	1	0	1	1	71.311	0.470949	0.470578	0.123232	2	-0.00323793	40	1.4393	5.79904e-05
2	1	0	1	1	72.4604	0.493938	0.493683	0.21491	2	-0.00304148	40	2.5887	0.000106097
2	1	0	1	1	73.6099	0.516927	0.516527	0.289634	2	-0.00274906	40	3.7382	0.000149604
2	1	0	1	1	74.7594	0.539918	0.539493	0.345703	2	-0.00238144	40	4.8877	0.000186505
2	1	0	1	1	75.9088	0.562905	0.562514	0.387175	2	-0.00195824	40	6.0371	0.000217791
2	1	0	1	1	77.0582	0.585892	0.585609	0.420108	2	-0.00149312	40	7.1865	0.000246019
2	1	0	1	1	78.2077	0.608883	0.608773	0.44638	2	-0.000994607	40	8.336	0.000271744
2	1	0	1	1	79.3572	0.631872	0.631382	0.466112	2	-0.000470147	40	9.4855	0.000294295
2	1	0	1	1	80.5066	0.654861	0.654345	0.485309	2	7.71115e-05	40	10.6349	0.00031756
2	1	0	1	1	81.6561	0.67785	0.67755	0.504102	2	0.000645101	40	11.7844	0.000341554
2	1	0	1	1	82.7786	0.699739	0.699343	0.523127	2	0.00122232	40	12.9069	0.000365845
2	1	0	1	1	83.928	0.676751	0.676606	0.511622	2	0.00181557	40	14.0563	0.000346167
2	1	0	1	1	85.0774	0.653764	0.653542	0.501566	2	0.00239842	40	15.2057	0.000327794
2	1	0	1	1	86.2269	0.630773	0.630396	0.489038	2	0.00296761	40	16.3552	0.000308287
2	1	0	1	1	87.3764	0.607784	0.60756	0.472416	2	0.00352007	40	17.5047	0.000287021
2	1	0	1	1	88.5258	0.584795	0.584418	0.45188	2	0.00405151	40	18.6541	0.000264087
2	1	0	1	1	89.6753	0.561805	0.561596	0.421135	2	0.00455405	40	19.8036	0.000236508
2	1	0	1	1	90.8247	0.538816	0.538543	0.377684	2	0.00501427	40	20.953	0.000203399
2	1	0	1	1	91.9742	0.515827	0.515684	0.316259	2	0.00541478	40	22.1025	0.00016309
2	1	0	1	1	93.1236	0.492838	0.492534	0.231516	2	0.00573096	40	23.2519	0.000114029
2	1	0	1	1	94.2731	0.469849	0.469499	0.126038	2	0.00593706	40	24.4014	5.91746e-05
2	1	0	1	1	95.4525	0.44626	0.446217	0.0100963	2	0.00601638	41	25.5808	4.50516e-06
2	0	0	1	1	96.602	0.423271	0.423035	-0.0878334	2	0.00596948	41	1.0245	-3.71566e-05
2	0	0	1	1	97.7814	0.399683	0.399321	-0.161906	2	0.00581892	40	2.2039	-6.46523e-05
2	0	0	1	1	98.9309	0.376693	0.376364	-0.212051	2	0.00560084	40	3.3534	-7.98085e-05
2	0	0	1	1	100.08	0.353704	0.353319	-0.245292	2	0.00533581	40	4.5028	-8.66663e-05
2	0	0	1	1	101.23	0.330715	0.330609	-0.267223	2	0.00503886	40	5.6523	-8.83464e-05
2	0	0	1	1	102.379	0.307726	0.307512	-0.282965	2	0.00472072	40	6.8017	-8.70151e-05
2	0	0	1	1	103.529	0.284737	0.284416	-0.293644	2	0.00438733	40	7.9512	-8.3517e-05
2	0	0	1	1	104.678	0.261746	0.261596	-0.302097	2	0.00404333	40	9.1007	-7.90273e-05
2	0	0	1	1	105.828	0.238759	0.2384	-0.309864	2	0.00368999	40	10.2501	-7.38714e-05
2	0	0	1	1	106.977	0.215772	0.215605	-0.31594	2	0.00332909	40	11.3995	-6.81182e-05
2	0	0	1	1	108.126	0.192781	0.192745	-0.321344	2	0.00296074	40	12.549	-6.19375e-05
2	0	0	1	1	109.276	0.169792	0.169567	-0.325918	2	0.00258688	40	13.6985	-5.5265e-05
2	0	0	1	1	110.425	0.146803	0.14651	-0.328717	2	0.00220937	40	14.8479	-4.81604e-05
2	0	0	1	1	111.575	0.123814	0.123705	-0.331342	2	0.001828	40	15.9974	-4.09888e-05
2	0	0	1	1	112.724	0.100825	0.10071	-0.334235	2	0.00144426	40	17.1468	-3.36609e-05
2	0	0	1	1	113.874	0.0778355	0.0775742	-0.335951	2	0.00105744	40	18.2963	-2.60612e-05
2	0	0	1	1	115.023	0.0548465	0.0545717	-0.336308	2	0.000669176	40	19.4457	-1.83529e-05
2	0	0	1	1	116.173	0.0318574	0.0316196	-0.337454	2	0.000280507	40	20.5952	-1.06702e-05
2	0	0	1	1	117.322	0.00886831	0.00850446	-0.339413	2	-0.000109769	40	21.7446	-2.88653e-06
2	0	0	1	0	118.43	0.0132644	0.0130061	-0.339726	2	-0.000485989	40	22.8521	-4.41852e-06
2	0	0	1	0	119.579	0.0362553	0.0359356	-0.338223	2	-0.000873114	40	24.0016	-1.21542e-05
2	0	0	1	0	120.729	0.0592444	0.0589768	-0.33513	2	-0.00125862	40	25.1511	-1.97649e-05
2	0	0	1	0	121.878	0.0822334	0.0817982	-0.333321	2	-0.00164162	40	26.3005	-2.7265e-05
2	0	0	1	0	123.027	0.105223	0.104813	-0.32919	2	-0.00202093	40	27.45	-3.45034e-05
2	0	0	1	0	124.177	0.128212	0.127855	-0.325133	2	-0.00239617	40	28.5994	-4.15699e-05
2	0	0	1	0	125.326	0.151201	0.151114	-0.319282	2	-0.00276537	40	29.7489	-4.82478e-05
2	0	0	1	0	126.476	0.17419	0.173967	-0.312464	2	-0.00312762	40	30.8983	-5.43585e-05
2	0	0	1	0	127.625	0.197179	0.196885	-0.303745	2	-0.00348108	40	32.0478	-5.98029e-05
2	0	0	1	0	128.775	0.220168	0.219922	-0.294395	2	-0.00382382	40	33.1972	-6.47441e-05
2	0	0	1	0	129.924	0.243157	0.242707	-0.28274	2	-0.00415443	40	34.3467	-6.86228e-05
2	0	0	1	0	131.074	0.266146	0.265865	-0.271586	2	-0.00447156	40	35.4961	-7.22053e-05
2	0	0	1	0	132.223	0.289135	0.288977	-0.261627	2	-0.00477581	40	36.6456	-7.56042e-05
2	0	0	1	0	133.373	0.312124	0.311834	-0.254268	2	-0.00507049	40	37.7951	-7.92894e-05
2	0	0	1	0	134.522	0.335113	0.334856	-0.242964	2	-0.00535522	40	38.9445	-8.13579e-05
2	0	0	1	0	135.671	0.358102	0.357951	-0.223158	2	-0.00562286	40	40.094	-7.98794e-05
2	0	0	1	0	136.821	0.381091	0.380817	-0.187008	2	-0.00585882	40	41.2434	-7.12158e-05
2	0	0	1	0	137.97	0.40408	0.403837	-0.132116	2	-0.00604284	40	42.3929	-5.33534e-05
2	0	0	1	0	139.12	0.42707	0.426577	-0.057232	2	-0.00615251	40	43.5423	-2.44138e-05
2	1	0	0	0	139.917	0.443037	0.441819	0.00699695	2	-0.00617284	41	0.0677	3.09139e-06