File: Python/Data/GoldElectrode/240313/240313-CVEIS_PostActivation-Fe2Fe3_5mM-HCl1M-0625RPM-Ag_AgCl_BLF8-Au_RDE_01_CV_C15.mpt
EC-Lab ASCII FILE
Nb header lines : 60

Cyclic Voltammetry

Run on channel : 15 (SN 19485)
User :
Electrode connection : standard
Potential control : Ewe
Ewe ctrl range : min = -1.00 V, max = 1.00 V
Ewe,I filtering : <None>
Safety Limits :
	Do not start on E overload
Channel : Floating
Acquisition started on : 03/13/2024 17:31:32.070
Loaded Setting File :  NONE
Saved on :
	File : 240313-CVEIS_PostActivation-Fe2Fe3_5mM-HCl1M-625RPM-Ag_AgCl_BLF8-Au_RDE_01_CV_C15.mpr
	Directory : C:\Data\mathias\GoldElectrode\
	Host : 192.168.0.1
Device : VMP-300 (SN 0826)
Address : USB
EC-Lab for windows v11.52 (software)
Internet server v11.52 (firmware)
Command interpretor v11.52 (firmware)
Electrode material :
Initial state :
Electrolyte :
Comments :
Cable : special
Electrode surface area : 0.001 cm²
Characteristic mass : 0.001 g
Equivalent Weight : 0.000 g/eq.
Density : 0.000 g/cm3
Volume (V) : 0.001 cm³
Record EIS quality indicators
Cycle Definition : Charge/Discharge alternance
Ei (V)              0.000
vs.                 Eoc
dE/dt               20.000
dE/dt unit          mV/s
E1 (V)              0.700
vs.                 Ref
Step percent        50
N                   10
E range min (V)     -1.000
E range max (V)     1.000
I Range             Auto
I Range min         Unset
I Range max         Unset
I Range init        Unset
Bandwidth           8
E2 (V)              0.000
vs.                 Ref
nc cycles           1
Reverse Scan        1
Ef (V)              0.000
vs.                 Eoc

mode	ox/red	error	control changes	counter inc.	time/s	control/V	Ewe/V	<I>/mA	cycle number	(Q-Qo)/C	I Range	step time/s	P/W
2	1	0	0	0	0.000000000000000E+000	0.447935	0.448256	0.00816999	1	0.0000000E+000	42	0.000000000000000E+000	3.66225e-06
2	1	0	1	0	1.1682	0.471297	0.471015	0.0957198	1	6.28648e-05	41	1.1544	4.50854e-05
2	1	0	1	0	2.3477	0.494887	0.494639	0.170362	1	0.000221777	40	2.3339	8.42676e-05
2	1	0	1	0	3.4971	0.517876	0.51745	0.227469	1	0.000453018	40	3.4833	0.000117704
2	1	0	1	0	4.6466	0.540865	0.540521	0.268525	1	0.000740348	40	4.6328	0.000145143
2	1	0	1	0	5.796	0.563853	0.563484	0.299039	1	0.00106837	40	5.7822	0.000168504
2	1	0	1	0	6.9455	0.586844	0.586484	0.321678	1	0.00142598	40	6.9317	0.000188659
2	1	0	1	0	8.095	0.609833	0.609552	0.33929	1	0.00180689	40	8.0812	0.000206815
2	1	0	1	0	9.2444	0.632822	0.63236	0.353533	1	0.00220547	40	9.2306	0.00022356
2	1	0	1	0	10.3939	0.655811	0.655572	0.366127	1	0.00261987	40	10.3801	0.000240023
2	1	0	1	0	11.5433	0.6788	0.678517	0.377772	1	0.00304751	40	11.5295	0.000256325
2	1	0	1	0	12.6684	0.69874	0.698406	0.387163	1	0.00347942	40	12.6546	0.000270397
2	1	0	1	0	13.8178	0.675751	0.675397	0.378677	1	0.00391853	40	13.804	0.000255757
2	1	0	1	0	14.9673	0.652762	0.652367	0.372007	1	0.00434978	40	14.9535	0.000242685
2	1	0	1	0	16.1167	0.629773	0.629392	0.365391	1	0.00477332	40	16.1029	0.000229974
2	1	0	1	0	17.2662	0.606784	0.606504	0.35625	1	0.00518789	40	17.2524	0.000216067
2	1	0	1	0	18.4156	0.583795	0.583519	0.343394	1	0.00558977	40	18.4018	0.000200377
2	1	0	1	0	19.5651	0.560806	0.560412	0.324252	1	0.00597388	40	19.5513	0.000181715
2	1	0	1	0	20.7145	0.537817	0.537488	0.294708	1	0.00632974	40	20.7007	0.000158402
2	1	0	1	0	21.864	0.514828	0.5147	0.248139	1	0.00664276	40	21.8502	0.000127717
2	1	0	1	0	23.0134	0.491839	0.491354	0.177509	1	0.00688874	40	22.9996	8.72197e-05
2	1	0	1	0	24.1629	0.46885	0.468419	0.0846801	1	0.00703993	40	24.1491	3.96658e-05
2	0	0	1	0	25.3423	0.445261	0.44488	-0.017362	1	0.00707846	41	0.1749	-7.72402e-06
2	0	0	1	0	26.4918	0.422272	0.421725	-0.0999719	1	0.00700863	41	1.3244	-4.21606e-05
2	0	0	1	0	27.6712	0.398683	0.398418	-0.157144	1	0.00685384	40	2.5038	-6.26091e-05
2	0	0	1	0	28.8207	0.375694	0.375283	-0.192051	1	0.00665035	40	3.6533	-7.20735e-05
2	0	0	1	0	29.9701	0.352705	0.352461	-0.213588	1	0.00641505	40	4.8027	-7.52815e-05
2	0	0	1	0	31.1196	0.329716	0.329187	-0.227246	1	0.00615999	40	5.9522	-7.48065e-05
2	0	0	1	0	32.269	0.306727	0.306515	-0.235738	1	0.00589236	40	7.1016	-7.22574e-05
2	0	0	1	0	33.4185	0.283738	0.283521	-0.241795	1	0.00561651	40	8.2511	-6.85539e-05
2	0	0	1	0	34.568	0.260747	0.260445	-0.246049	1	0.00533485	40	9.4006	-6.40823e-05
2	0	0	1	0	35.7174	0.23776	0.237429	-0.250213	1	0.00504834	40	10.55	-5.94078e-05
2	0	0	1	0	36.8668	0.214772	0.214756	-0.252714	1	0.00475764	40	11.6994	-5.42717e-05
2	0	0	1	0	38.0163	0.191781	0.191498	-0.255126	1	0.00446408	40	12.8489	-4.88561e-05
2	0	0	1	0	39.1658	0.168792	0.1688	-0.256531	1	0.00416811	40	13.9984	-4.33024e-05
2	0	0	1	0	40.3152	0.145803	0.145642	-0.258179	1	0.00387054	40	15.1478	-3.76016e-05
2	0	0	1	0	41.4647	0.122814	0.122636	-0.259335	1	0.00357129	40	16.2973	-3.18037e-05
2	0	0	1	0	42.6141	0.0998251	0.0996634	-0.260296	1	0.00327112	40	17.4467	-2.5942e-05
2	0	0	1	0	43.7636	0.076836	0.0766866	-0.261241	1	0.00296963	40	18.5962	-2.00337e-05
2	0	0	1	0	44.913	0.0538469	0.0535047	-0.261766	1	0.00266772	40	19.7456	-1.40057e-05
2	0	0	1	0	46.0625	0.0308579	0.0304742	-0.261967	1	0.00236514	40	20.8951	-7.98325e-06
2	0	0	1	0	47.2119	0.00786878	0.00773639	-0.262212	1	0.00206233	40	22.0445	-2.02857e-06
2	0	0	1	1	48.3194	0.0142657	0.0139142	-0.263972	1	0.00177136	40	23.152	-3.67296e-06
2	0	0	1	1	49.4689	0.0372548	0.0368367	-0.262006	1	0.00147054	40	24.3015	-9.65143e-06
2	0	0	1	1	50.6183	0.0602439	0.0599032	-0.262231	1	0.00117105	40	25.4509	-1.57085e-05
2	0	0	1	1	51.7678	0.083233	0.0828694	-0.260708	1	0.00087213	40	26.6004	-2.16047e-05
2	0	0	1	1	52.9172	0.106222	0.105984	-0.25878	1	0.000575157	40	27.7498	-2.74265e-05
2	0	0	1	1	54.0667	0.129211	0.129181	-0.256795	1	0.000280208	40	28.8993	-3.31731e-05
2	0	0	1	1	55.2161	0.1522	0.152008	-0.2545	1	-1.2225e-05	40	30.0487	-3.86862e-05
2	0	0	1	1	56.3656	0.175189	0.174815	-0.251519	1	-0.00030152	40	31.1982	-4.39692e-05
2	0	0	1	1	57.515	0.198178	0.197977	-0.246596	1	-0.000586475	40	32.3476	-4.88203e-05
2	0	0	1	1	58.6645	0.221167	0.221026	-0.240416	1	-0.000864801	40	33.4971	-5.31382e-05
2	0	0	1	1	59.814	0.244158	0.24403	-0.232839	1	-0.00113557	40	34.6466	-5.68197e-05
2	0	0	1	1	60.9634	0.267146	0.266851	-0.224183	1	-0.00139699	40	35.796	-5.98234e-05
2	0	0	1	1	62.1128	0.290133	0.289591	-0.216708	1	-0.00164866	40	36.9454	-6.27569e-05
2	0	0	1	1	63.2623	0.313124	0.312694	-0.212064	1	-0.00189394	40	38.0949	-6.6311e-05
2	0	0	1	1	64.4118	0.336113	0.335756	-0.205171	1	-0.00213306	40	39.2444	-6.88874e-05
2	0	0	1	1	65.5612	0.359102	0.358759	-0.192257	1	-0.00236122	40	40.3938	-6.89739e-05
2	0	0	1	1	66.7107	0.382091	0.381792	-0.166577	1	-0.00256789	40	41.5433	-6.35978e-05
2	0	0	1	1	67.8601	0.40508	0.404804	-0.122953	1	-0.00273498	40	42.6927	-4.97721e-05
2	0	0	1	1	69.0096	0.428069	0.427851	-0.0576388	1	-0.00283963	40	43.8422	-2.46608e-05
2	1	0	1	1	70.1565	0.451008	0.450667	0.0280378	2	-0.00285751	41	0.3423	1.26357e-05
2	1	0	1	1	71.336	0.474597	0.474349	0.120829	2	-0.00276873	40	1.5218	5.73154e-05
2	1	0	1	1	72.4854	0.497586	0.497214	0.199909	2	-0.00258128	40	2.6712	9.93977e-05
2	1	0	1	1	73.6349	0.520575	0.520369	0.257349	2	-0.00231537	40	3.8207	0.000133916
2	1	0	1	1	74.7843	0.543564	0.543061	0.295931	2	-0.00199499	40	4.9701	0.000160708
2	1	0	1	1	75.9338	0.566553	0.566148	0.321201	2	-0.0016385	40	6.1196	0.000181847
2	1	0	1	1	77.0832	0.589542	0.589306	0.339287	2	-0.00125769	40	7.269	0.000199944
2	1	0	1	1	78.2327	0.612531	0.612235	0.351856	2	-0.000859994	40	8.4185	0.000215418
2	1	0	1	1	79.3822	0.635521	0.635414	0.362548	2	-0.000448527	40	9.568	0.000230368
2	1	0	1	1	80.5316	0.65851	0.658117	0.372067	2	-2.62495e-05	40	10.7174	0.000244863
2	1	0	1	1	81.6811	0.681499	0.681137	0.381775	2	0.000407174	40	11.8669	0.000260041
2	1	0	1	1	82.7961	0.696242	0.695946	0.387633	2	0.000838333	40	12.9819	0.000269772
2	1	0	1	1	83.9455	0.673253	0.673159	0.379158	2	0.00127864	40	14.1313	0.000255234
2	1	0	1	1	85.095	0.650264	0.649918	0.373433	2	0.00171103	40	15.2808	0.000242701
2	1	0	1	1	86.2444	0.627276	0.626913	0.366117	2	0.0021356	40	16.4302	0.000229523
2	1	0	1	1	87.3939	0.604285	0.603789	0.357415	2	0.00255131	40	17.5797	0.000215803
2	1	0	1	1	88.5434	0.581296	0.580872	0.344653	2	0.00295461	40	18.7292	0.0002002
2	1	0	1	1	89.6928	0.558307	0.558034	0.32483	2	0.00333938	40	19.8786	0.000181266
2	1	0	1	1	90.8423	0.535318	0.535004	0.293608	2	0.00369526	40	21.0281	0.000157081
2	1	0	1	1	91.9917	0.512329	0.511928	0.244604	2	0.00400564	40	22.1775	0.00012522
2	1	0	1	1	93.1412	0.48934	0.489029	0.171017	2	0.00424594	40	23.327	8.36321e-05
2	1	0	1	1	94.2906	0.466351	0.465997	0.0753722	2	0.00438813	40	24.4764	3.51232e-05
2	0	0	1	1	95.4701	0.442762	0.442481	-0.0270578	2	0.0044153	41	0.2999	-1.19726e-05
2	0	0	1	1	96.6195	0.419773	0.419709	-0.107892	2	0.00433522	41	1.4493	-4.52833e-05
2	0	0	1	1	97.799	0.396184	0.395894	-0.162723	2	0.0041725	40	2.6288	-6.44211e-05
2	0	0	1	1	98.9484	0.373195	0.372676	-0.19555	2	0.00396375	40	3.7782	-7.28767e-05
2	0	0	1	1	100.098	0.350206	0.349933	-0.21523	2	0.00372548	40	4.9277	-7.53162e-05
2	0	0	1	1	101.247	0.327217	0.326911	-0.227417	2	0.00346899	40	6.0771	-7.43451e-05
2	0	0	1	1	102.397	0.304228	0.303828	-0.235815	2	0.00320124	40	7.2266	-7.16472e-05
2	0	0	1	1	103.546	0.281239	0.28115	-0.241736	2	0.00292518	40	8.376	-6.79639e-05
2	0	0	1	1	104.696	0.25825	0.257854	-0.24603	2	0.00264332	40	9.5255	-6.344e-05
2	0	0	1	1	105.845	0.235261	0.234875	-0.249117	2	0.00235703	40	10.6749	-5.85112e-05
2	0	0	1	1	106.995	0.212272	0.212012	-0.252081	2	0.00206754	40	11.8244	-5.34444e-05
2	0	0	1	1	108.144	0.189283	0.189232	-0.254048	2	0.00177473	40	12.9738	-4.80742e-05
2	0	0	1	1	109.293	0.166294	0.166073	-0.255629	2	0.00147991	40	14.1233	-4.2453e-05
2	0	0	1	1	110.443	0.143304	0.142934	-0.257441	2	0.00118304	40	15.2728	-3.6797e-05
2	0	0	1	1	111.592	0.120315	0.120183	-0.25829	2	0.000885057	40	16.4222	-3.10422e-05
2	0	0	1	1	112.742	0.0973263	0.097165	-0.259457	2	0.000585811	40	17.5717	-2.52101e-05
2	0	0	1	1	113.891	0.0743372	0.0740079	-0.260061	2	0.00028543	40	18.7211	-1.92466e-05
2	0	0	1	1	115.041	0.0513481	0.0511838	-0.260551	2	-1.53474e-05	40	19.8706	-1.3336e-05
2	0	0	1	1	116.19	0.028359	0.0283011	-0.26127	2	-0.000316755	40	21.02	-7.39423e-06
2	0	0	1	1	117.34	0.00536997	0.00517497	-0.26117	2	-0.000618431	40	22.1695	-1.35155e-06
2	0	0	1	0	118.447	0.0167663	0.0165736	-0.261958	2	-0.000907892	40	23.277	-4.34157e-06
2	0	0	1	0	119.597	0.0397536	0.0396104	-0.262161	2	-0.00120745	40	24.4264	-1.03843e-05
2	0	0	1	0	120.746	0.0627409	0.0624372	-0.260815	2	-0.00150572	40	25.5758	-1.62846e-05
2	0	0	1	0	121.895	0.0857318	0.085303	-0.259367	2	-0.00180295	40	26.7253	-2.21248e-05
2	0	0	1	0	123.045	0.108721	0.108458	-0.257541	2	-0.00209864	40	27.8748	-2.79325e-05
2	0	0	1	0	124.194	0.13171	0.131347	-0.25573	2	-0.00239235	40	29.0242	-3.35894e-05
2	0	0	1	0	125.344	0.154699	0.15434	-0.252815	2	-0.00268306	40	30.1737	-3.90195e-05
2	0	0	1	0	126.493	0.177688	0.177271	-0.249703	2	-0.00297047	40	31.3231	-4.4265e-05
2	0	0	1	0	127.643	0.200677	0.20032	-0.244961	2	-0.00325339	40	32.4726	-4.90705e-05
2	0	0	1	0	128.792	0.223666	0.223355	-0.238831	2	-0.00352999	40	33.622	-5.3344e-05
2	0	0	1	0	129.942	0.246655	0.246378	-0.231446	2	-0.00379895	40	34.7715	-5.70231e-05
2	0	0	1	0	131.091	0.269644	0.269233	-0.222791	2	-0.00405847	40	35.9209	-5.99828e-05
2	0	0	1	0	132.241	0.292633	0.292333	-0.215548	2	-0.00430877	40	37.0704	-6.30119e-05
2	0	0	1	0	133.39	0.315622	0.315418	-0.210972	2	-0.00455261	40	38.2198	-6.65442e-05
2	0	0	1	0	134.539	0.338612	0.338301	-0.204095	2	-0.00479029	40	39.3693	-6.90454e-05
2	0	0	1	0	135.689	0.361601	0.360975	-0.190311	2	-0.00501673	40	40.5188	-6.86975e-05
2	0	0	1	0	136.838	0.38459	0.384323	-0.163325	2	-0.00522026	40	41.6682	-6.27696e-05
2	0	0	1	0	137.988	0.407579	0.40726	-0.117013	2	-0.00538225	40	42.8177	-4.76545e-05
2	0	0	1	0	139.137	0.430568	0.430448	-0.048976	2	-0.00547859	40	43.9671	-2.10816e-05
2	1	0	1	0	139.917	0.446186	0.445427	0.0103177	2	-0.00549389	41	0.1004	4.59579e-06