File: Python/Data/GoldElectrode/240313/240313-CVEIS_PostActivation-Fe2Fe3_5mM-HCl1M-0000RPM-Ag_AgCl_BLF8-Au_RDE_02_PEIS_C15.mpt
EC-Lab ASCII FILE
Nb header lines : 66

Potentio Electrochemical Impedance Spectroscopy

Run on channel : 15 (SN 19485)
User :
Electrode connection : standard
Potential control : Ewe
Ewe ctrl range : min = -1.00 V, max = 1.00 V
Ewe,I filtering : <None>
Safety Limits :
	Do not start on E overload
Channel : Floating
Acquisition started on : 03/13/2024 16:38:30.802
Loaded Setting File :  C:\Data\mathias\GoldElectrode\240308-CVEIS_PostActivation-Fe2Fe3_5mM-HCl1M-0RPM-Ag_AgCl_BLF8-Au_RDE-C15.mps
Saved on :
	File : 240313-CVEIS_PostActivation-Fe2Fe3_5mM-HCl1M-0RPM-Ag_AgCl_BLF8-Au_RDE_02_PEIS_C15.mpr
	Directory : C:\Data\mathias\GoldElectrode\
	Host : 192.168.0.1
Device : VMP-300 (SN 0826)
Address : USB
EC-Lab for windows v11.52 (software)
Internet server v11.52 (firmware)
Command interpretor v11.52 (firmware)
Electrode material :
Initial state :
Electrolyte :
Comments :
Cable : special
Electrode surface area : 0.001 cm²
Characteristic mass : 0.001 g
Equivalent Weight : 0.000 g/eq.
Density : 0.000 g/cm3
Volume (V) : 0.001 cm³
Record EIS quality indicators
Cycle Definition : Charge/Discharge alternance
Mode                Single sine
E (V)               0.0000
vs.                 Eoc
tE (h:m:s)          0:01:0.0000
record              0
dI                  0.000
unit dI             mA
dt (s)              0.000
fi                  400.000
unit fi             kHz
ff                  100.000
unit ff             mHz
Nd                  10
Points              per decade
spacing             Logarithmic
Va (mV)             5.0
pw                  0.10
Na                  3
corr                0
E range min (V)     -1.000
E range max (V)     1.000
I Range             Auto
Bandwidth           8
nc cycles           1
goto Ns'            0
nr cycles           0
inc. cycle          1

freq/Hz	Re(Z)/Ohm	-Im(Z)/Ohm	|Z|/Ohm	Phase(Z)/deg	time/s	<Ewe>/V	<I>/mA	Cs/µF	Cp/µF	cycle number	I Range	|Ewe|/V	|I|/A	Ns	(Q-Qo)/mA.h	THD Ewe/%	NSD Ewe/%	NSR Ewe/%	|Ewe h2|/V	|Ewe h3|/V	|Ewe h4|/V	|Ewe h5|/V	|Ewe h6|/V	|Ewe h7|/V	THD I/%	NSD I/%	NSR I/%	|I h2|/A	|I h3|/A	|I h4|/A	|I h5|/A	|I h6|/A	|I h7|/A	Re(Y)/Ohm-1	Im(Y)/Ohm-1	|Y|/Ohm-1	Phase(Y)/deg	Re(C)/nF	Im(C)/nF	|C|/nF	Phase(C)/deg	Re(M)	Im(M)	|M|	Phase(M)/deg	Re(Permittivity)	Im(Permittivity)	|Permittivity|	Phase(Permittivity)/deg	Re(Resistivity)/Ohm.cm	Im(Resistivity)/Ohm.cm	|Resistivity|/Ohm.cm	Phase(Resistivity)/deg	Re(Conductivity)/mS/cm	Im(Conductivity)/mS/cm	|Conductivity|/mS/cm	Phase(Conductivity)/deg	Tan(Delta)	Loss Angle(Delta)/deg	dq/mA.h
399996	3.31182	1.45815	3.61861	-23.7633	203.378	0.451473	-0.0116505	0.272874	0.044308	1	38	0.00467274	0.00129131	0	4.68622e-05	-1	-1	-1	0	0	0	0	0	0	-1	-1	-1	0	0	0	0	0	0	0.25292	0.111357	0.276349	23.7633	44.308	100.634	109.957	-66.2367	0.0000000E+000	0.0000000E+000	0.0000000E+000	66.2367	0.0000000E+000	0.0000000E+000	0.0000000E+000	-66.2367	0.0000000E+000	0.0000000E+000	0.0000000E+000	-23.7633	0.0000000E+000	0.0000000E+000	0.0000000E+000	23.7633	2.27125	66.2367	4.68622e-05
50326.6	3.50725	0.686988	3.5739	-11.0826	213.703	0.451471	-0.00153451	4.60334	0.170093	1	38	0.00515952	0.00144367	0	3.55237e-05	1.00124	0.638209	18.7269	1.66961e-05	2.14492e-05	3.22082e-05	1.67095e-05	1.1785e-05	1.57654e-05	0.138914	0.0809191	2.01825	3.88953e-07	1.14014e-06	1.00017e-06	6.47475e-07	8.16721e-07	3.11228e-07	0.274589	0.0537855	0.279807	11.0826	170.093	868.37	884.872	-78.9174	0.0000000E+000	0.0000000E+000	0.0000000E+000	78.9174	0.0000000E+000	0.0000000E+000	0.0000000E+000	-78.9174	0.0000000E+000	0.0000000E+000	0.0000000E+000	-11.0826	0.0000000E+000	0.0000000E+000	0.0000000E+000	11.0826	5.10525	78.9174	-2.01166e-06
6332.63	4.13608	1.39592	4.36529	-18.6495	224.146	0.45135	-0.00194786	18.0042	1.84107	1	38	0.00515959	0.00118196	0	3.23263e-05	0.933005	0.462061	18.7618	2.9284e-05	1.93312e-05	1.38248e-05	9.71875e-06	1.26705e-05	1.92164e-05	0.138606	0.0912866	2.45946	8.75929e-07	5.21687e-07	5.94847e-07	2.43766e-07	5.46763e-07	7.48156e-07	0.217051	0.0732546	0.22908	18.6495	1841.07	5455.05	5757.35	-71.3505	0.0000000E+000	0.0000000E+000	0.0000000E+000	71.3505	0.0000000E+000	0.0000000E+000	0.0000000E+000	-71.3505	0.0000000E+000	0.0000000E+000	0.0000000E+000	-18.6495	0.0000000E+000	0.0000000E+000	0.0000000E+000	18.6495	2.96297	71.3505	-5.81137e-07
796.787	6.80055	7.08554	9.82101	-46.1757	234.561	0.451338	-0.00150288	28.1906	14.6736	1	38	0.00505446	0.000514657	0	2.74901e-05	1.1269	0.7263	19.1985	2.38568e-05	2.07936e-05	1.61912e-05	1.98523e-05	1.67915e-05	3.24838e-05	0.517908	0.26401	5.68705	1.79563e-06	1.31451e-06	3.06197e-07	1.08068e-06	8.11437e-07	3.1714e-07	0.0705069	0.0734615	0.101822	46.1757	14673.6	14083.4	20338.6	-43.8243	0.0000000E+000	0.0000000E+000	0.0000000E+000	43.8243	0.0000000E+000	0.0000000E+000	0.0000000E+000	-43.8243	0.0000000E+000	0.0000000E+000	0.0000000E+000	-46.1757	0.0000000E+000	0.0000000E+000	0.0000000E+000	46.1757	0.959779	43.8243	-1.82037e-07
100.224	24.8185	17.3394	30.2756	-34.9401	244.767	0.451375	-0.00063353	91.5822	30.0397	1	39	0.00493757	0.000163087	0	2.73738e-05	1.23921	0.603227	21.1071	2.5475e-05	2.91732e-05	1.87628e-05	1.79093e-05	2.4174e-05	1.77743e-05	0.581097	0.172252	7.73962	4.50298e-07	2.7309e-07	2.31194e-07	5.7826e-07	2.81762e-07	2.89932e-07	0.0270763	0.0189168	0.0330299	34.9401	30039.6	42996.7	52450.9	-55.0599	0.0000000E+000	0.0000000E+000	0.0000000E+000	55.0599	0.0000000E+000	0.0000000E+000	0.0000000E+000	-55.0599	0.0000000E+000	0.0000000E+000	0.0000000E+000	-34.9401	0.0000000E+000	0.0000000E+000	0.0000000E+000	34.9401	1.43133	55.0599	-1.92062e-08
12.6144	49.2657	24.2738	54.9211	-26.23	254.452	0.451383	-0.000404099	519.777	101.535	1	39	0.0049041	8.92935e-05	0	2.65768e-05	0.81658	0.522276	14.9929	1.69811e-05	1.25144e-05	2.05124e-05	1.05502e-05	1.73173e-05	1.42893e-05	0.666253	0.39023	10.2092	3.92102e-07	1.39836e-07	2.84172e-07	9.04199e-08	2.24445e-07	1.54154e-07	0.016333	0.00804747	0.0182079	26.23	101535	206073	229729	-63.77	0.0000000E+000	0.0000000E+000	0.0000000E+000	63.77	0.0000000E+000	0.0000000E+000	0.0000000E+000	-63.77	0.0000000E+000	0.0000000E+000	0.0000000E+000	-26.23	0.0000000E+000	0.0000000E+000	0.0000000E+000	26.23	2.02958	63.77	-5.97796e-08
1.5871	88.0881	51.7132	102.146	-30.4156	275.057	0.451395	-0.000588976	1939.16	497.022	1	40	0.00490865	4.80553e-05	0	2.12052e-05	0.744386	0.279909	11.6198	2.04481e-05	8.21281e-06	1.82664e-05	1.24638e-05	5.89759e-06	1.25977e-05	0.670302	0.301183	1.67732	2.93078e-07	7.6584e-08	2.34461e-08	8.33217e-08	2.1522e-08	3.18894e-08	0.00844259	0.00495633	0.00978992	30.4156	497022	846626	981737	-59.5844	0.0000000E+000	0.0000000E+000	0.0000000E+000	59.5844	0.0000000E+000	0.0000000E+000	0.0000000E+000	-59.5844	0.0000000E+000	0.0000000E+000	0.0000000E+000	-30.4156	0.0000000E+000	0.0000000E+000	0.0000000E+000	30.4156	1.7034	59.5844	-2.73927e-06
0.199573	179.96	135.539	225.292	-36.9858	413.087	0.451382	-0.00061321	5883.71	2129.56	1	41	0.00490183	2.17576e-05	0	-6.88521e-06	0.301132	0.14584	5.40198	4.91068e-06	7.24799e-06	4.38844e-06	8.87469e-06	4.33441e-06	4.26038e-06	0.874461	0.206822	0.676722	1.8506e-07	1.37173e-08	1.47193e-08	2.98566e-08	1.27597e-08	1.14898e-08	0.00354555	0.00267038	0.00443868	36.9858	2.12956e+06	2.82749e+06	3.53974e+06	-53.0142	0.0000000E+000	0.0000000E+000	0.0000000E+000	53.0142	0.0000000E+000	0.0000000E+000	0.0000000E+000	-53.0142	0.0000000E+000	0.0000000E+000	0.0000000E+000	-36.9858	0.0000000E+000	0.0000000E+000	0.0000000E+000	36.9858	1.32773	53.0143	-8.77122e-06
126447	3.30708	0.734084	3.38757	-12.5152	570.613	0.451483	-0.00128501	1.71461	0.0805155	2	38	0.00517445	0.00152748	0	-2.99229e-05	-1	-1	-1	0	0	0	0	0	0	-1	-1	-1	0	0	0	0	0	0	0.288183	0.063969	0.295197	12.5152	80.5155	362.725	371.554	-77.4848	0.0000000E+000	0.0000000E+000	0.0000000E+000	77.4848	0.0000000E+000	0.0000000E+000	0.0000000E+000	-77.4848	0.0000000E+000	0.0000000E+000	0.0000000E+000	-12.5152	0.0000000E+000	0.0000000E+000	0.0000000E+000	12.5152	4.50504	77.4848	-3.27533e-06
15912.6	3.88397	0.878095	3.98199	-12.7394	580.938	0.451469	-0.000994549	11.3903	0.553883	2	38	0.005145	0.00129207	0	-3.55957e-05	0.980783	0.4982	18.5528	2.15826e-05	2.08994e-05	9.49197e-06	1.435e-05	2.63014e-05	1.72723e-05	0.176549	0.111699	2.25139	1.21162e-06	7.97486e-07	7.61167e-07	9.73663e-07	8.07808e-07	5.45414e-07	0.244948	0.0553784	0.25113	12.7394	553.883	2449.92	2511.76	-77.2606	0.0000000E+000	0.0000000E+000	0.0000000E+000	77.2606	0.0000000E+000	0.0000000E+000	0.0000000E+000	-77.2606	0.0000000E+000	0.0000000E+000	0.0000000E+000	-12.7394	0.0000000E+000	0.0000000E+000	0.0000000E+000	12.7394	4.42318	77.2606	4.29189e-07
2001.92	4.84447	3.61513	6.04467	-36.7317	591.632	0.451364	-0.00155686	21.9913	7.86596	2	38	0.00531588	0.000879432	0	-3.82728e-05	1.08496	0.395897	17.6536	1.60534e-05	1.7971e-05	2.5618e-05	2.02069e-05	3.0565e-05	1.6983e-05	0.309701	0.141597	3.21673	1.78835e-06	6.38156e-07	9.21338e-07	9.6867e-07	1.05069e-06	8.13456e-07	0.132587	0.0989414	0.165435	36.7317	7865.96	10540.8	13152.3	-53.2683	0.0000000E+000	0.0000000E+000	0.0000000E+000	53.2683	0.0000000E+000	0.0000000E+000	0.0000000E+000	-53.2683	0.0000000E+000	0.0000000E+000	0.0000000E+000	-36.7317	0.0000000E+000	0.0000000E+000	0.0000000E+000	36.7317	1.34006	53.2683	2.01425e-07
251.853	14.9621	15.1561	21.2972	-45.3691	601.589	0.4514	0.00152834	41.6951	21.1162	2	38	0.00491794	0.00023092	0	-4.10311e-05	1.05722	0.840727	19.9677	5.67382e-06	1.62742e-05	3.12024e-05	1.64052e-05	2.58069e-05	1.5695e-05	0.870572	0.335451	12.6776	1.21307e-06	7.22715e-07	5.91008e-07	7.85343e-07	6.9942e-07	4.30134e-07	0.0329873	0.0334151	0.0469545	45.3691	21116.2	20845.8	29672.2	-44.6309	0.0000000E+000	0.0000000E+000	0.0000000E+000	44.6309	0.0000000E+000	0.0000000E+000	0.0000000E+000	-44.6309	0.0000000E+000	0.0000000E+000	0.0000000E+000	-45.3691	0.0000000E+000	0.0000000E+000	0.0000000E+000	45.3691	0.987198	44.6309	2.15937e-07
31.6723	41.5268	21.5462	46.7837	-27.4226	611.603	0.451385	-0.000142235	233.222	49.4679	2	39	0.00492378	0.000105246	0	-4.08959e-05	0.988431	0.726905	21.1056	1.92228e-05	1.38801e-05	1.78379e-05	2.01927e-05	1.99187e-05	1.48795e-05	0.610887	0.402326	12.0933	2.46887e-07	2.22897e-07	2.16474e-07	1.99726e-07	2.60177e-07	2.51741e-07	0.0189731	0.00984425	0.021375	27.4226	49467.9	95341.1	107410	-62.5774	0.0000000E+000	0.0000000E+000	0.0000000E+000	62.5774	0.0000000E+000	0.0000000E+000	0.0000000E+000	-62.5774	0.0000000E+000	0.0000000E+000	0.0000000E+000	-27.4226	0.0000000E+000	0.0000000E+000	0.0000000E+000	27.4226	1.92733	62.5774	7.10361e-08
3.98597	71.7572	36.5692	80.5382	-27.0045	623.685	0.45141	-0.000288182	1091.87	225.111	2	40	0.00490809	6.09411e-05	0	-4.26188e-05	0.880898	0.839022	19.7949	2.69731e-05	9.51895e-06	8.80286e-06	1.73829e-05	1.34798e-05	1.76866e-05	0.521076	0.113662	2.15481	2.99786e-07	5.62215e-08	1.7413e-08	7.3203e-08	3.03073e-08	2.56774e-08	0.0110627	0.00563782	0.0124165	27.0045	225111	441721	495774	-62.9955	0.0000000E+000	0.0000000E+000	0.0000000E+000	62.9955	0.0000000E+000	0.0000000E+000	0.0000000E+000	-62.9955	0.0000000E+000	0.0000000E+000	0.0000000E+000	-27.0045	0.0000000E+000	0.0000000E+000	0.0000000E+000	27.0045	1.96223	62.9955	-8.66233e-07
0.501541	132.699	87.1317	158.748	-33.2894	678.576	0.4514	-0.000252249	3641.98	1097.17	2	40	0.00490308	3.0886e-05	0	-4.81226e-05	0.416609	0.171829	6.38289	7.60636e-06	6.3597e-06	1.0715e-05	6.20229e-06	7.01749e-06	5.67053e-06	0.682463	0.183852	1.56035	2.03894e-07	1.60461e-08	6.33875e-09	4.29156e-08	1.75021e-08	1.70667e-08	0.00526564	0.00345748	0.00629929	33.2894	1.09717e+06	1.67095e+06	1.99897e+06	-56.7106	0.0000000E+000	0.0000000E+000	0.0000000E+000	56.7106	0.0000000E+000	0.0000000E+000	0.0000000E+000	-56.7106	0.0000000E+000	0.0000000E+000	0.0000000E+000	-33.2894	0.0000000E+000	0.0000000E+000	0.0000000E+000	33.2894	1.52297	56.7106	-4.62693e-06
0.0999518	242.496	189.982	308.054	-38.0767	923.508	0.451402	0.000313147	8381.4	3187.78	2	41	0.00490322	1.59167e-05	0	-4.50269e-05	0.235426	0.145445	4.31395	4.60193e-06	5.562e-06	2.4924e-06	5.35025e-06	3.81698e-06	4.82385e-06	0.762921	0.28175	0.755549	1.1799e-07	1.2074e-08	9.12608e-09	2.09164e-08	7.25233e-09	4.3685e-09	0.00255535	0.00200197	0.00324618	38.0767	3.18778e+06	4.06892e+06	5.16895e+06	-51.9233	0.0000000E+000	0.0000000E+000	0.0000000E+000	51.9233	0.0000000E+000	0.0000000E+000	0.0000000E+000	-51.9233	0.0000000E+000	0.0000000E+000	0.0000000E+000	-38.0767	0.0000000E+000	0.0000000E+000	0.0000000E+000	38.0767	1.27641	51.9232	8.67368e-06