File: Python/Data/GoldElectrode/240313/240313-CVEIS_Activation-0p5H2SO4-Ag_AgCl_BLF8-Au_RDE-80cycles_01_CV_C15.mpt
EC-Lab ASCII FILE
Nb header lines : 60

Cyclic Voltammetry

Run on channel : 15 (SN 19485)
User :
Electrode connection : standard
Potential control : Ewe
Ewe ctrl range : min = -2.50 V, max = 2.50 V
Ewe,I filtering : 50 kHz
Safety Limits :
	Do not start on E overload
Channel : Floating
Acquisition started on : 03/13/2024 15:25:11.595
Loaded Setting File :  C:\Data\mathias\GoldElectrode\240308-CVEIS_Activation-0p5H2SO4-Ag_AgCl_BLF8-Au_RDE-80cycles-C15.mps
Saved on :
	File : 240313-CVEIS_Activation-0p5H2SO4-Ag_AgCl_BLF8-Au_RDE-80cycles_01_CV_C15.mpr
	Directory : C:\Data\mathias\GoldElectrode\
	Host : 192.168.0.1
Device : VMP-300 (SN 0826)
Address : USB
EC-Lab for windows v11.52 (software)
Internet server v11.52 (firmware)
Command interpretor v11.52 (firmware)
Electrode material :
Initial state :
Electrolyte :
Comments :
Cable : special
Electrode surface area : 0.001 cm²
Characteristic mass : 0.001 g
Equivalent Weight : 0.000 g/eq.
Density : 0.000 g/cm3
Volume (V) : 0.001 cm³
Record EIS quality indicators
Cycle Definition : Charge/Discharge alternance
Ei (V)              0.000
vs.                 Eoc
dE/dt               200.000
dE/dt unit          mV/s
E1 (V)              1.500
vs.                 Ref
Step percent        50
N                   10
E range min (V)     -2.500
E range max (V)     2.500
I Range             Auto
I Range min         Unset
I Range max         Unset
I Range init        Unset
Bandwidth           8
E2 (V)              -0.300
vs.                 Ref
nc cycles           0
Reverse Scan        1
Ef (V)              0.000
vs.                 Eoc

mode	ox/red	error	control changes	counter inc.	time/s	control/V	Ewe/V	<I>/mA	cycle number	(Q-Qo)/C	I Range	step time/s	P/W
2	1	1	0	0	0.000000000000000E+000	0.448618	0.448301	3.97203e-06	1	0.0000000E+000	45	0.000000000000000E+000	1.78066e-09
2	1	0	1	0	0.1827	0.485149	0.484897	0.00238444	1	3.35917e-07	42	0.1625	1.15621e-06
2	1	0	1	0	0.3326	0.515134	0.514886	0.00281826	1	7.22412e-07	42	0.3124	1.45108e-06
2	1	0	1	0	0.4825	0.545118	0.544837	0.00326764	1	1.17452e-06	42	0.4623	1.78033e-06
2	1	0	1	0	0.6324	0.575103	0.574851	0.00383707	1	1.70125e-06	42	0.6122	2.20574e-06
2	1	0	1	0	0.7824	0.605088	0.604832	0.00448523	1	2.31771e-06	42	0.7622	2.71281e-06
2	1	0	1	0	0.9323	0.635073	0.634809	0.00528806	1	3.04359e-06	42	0.9121	3.35691e-06
2	1	0	1	0	1.0822	0.665058	0.664794	0.00620068	1	3.89999e-06	42	1.062	4.12218e-06
2	1	0	1	0	1.2321	0.695042	0.694772	0.00717412	1	4.90056e-06	42	1.2119	4.98438e-06
2	1	0	1	0	1.382	0.725027	0.724749	0.00811513	1	6.0443e-06	42	1.3618	5.88143e-06
2	1	0	1	0	1.532	0.755012	0.754746	0.0088619	1	7.31674e-06	42	1.5118	6.68849e-06
2	1	0	1	0	1.6819	0.784997	0.784736	0.00946135	1	8.6919e-06	42	1.6617	7.42467e-06
2	1	0	1	0	1.8318	0.814982	0.814705	0.00997908	1	1.01488e-05	42	1.8116	8.13001e-06
2	1	0	1	0	1.9817	0.844966	0.844682	0.0103879	1	1.16744e-05	42	1.9615	8.7745e-06
2	1	0	1	0	2.1317	0.874951	0.874685	0.0108588	1	1.32668e-05	42	2.1115	9.49804e-06
2	1	0	1	0	2.3116	0.910933	0.910707	0.011569	1	1.528e-05	41	2.2914	1.05359e-05
2	1	0	1	0	2.4615	0.940918	0.940689	0.0123261	1	1.70697e-05	41	2.4413	1.1595e-05
2	1	0	1	0	2.6114	0.970902	0.970662	0.013133	1	1.89753e-05	41	2.5912	1.27477e-05
2	1	0	1	0	2.7613	1.00089	1.00063	0.014097	1	2.10097e-05	41	2.7411	1.41059e-05
2	1	0	1	0	2.9113	1.03087	1.03061	0.0153131	1	2.32044e-05	41	2.8911	1.57819e-05
2	1	0	1	0	3.0612	1.06086	1.06062	0.0170262	1	2.56144e-05	41	3.041	1.80583e-05
2	1	0	1	0	3.2111	1.09084	1.09061	0.019513	1	2.83375e-05	41	3.1909	2.1281e-05
2	1	0	1	0	3.361	1.12083	1.12057	0.0231517	1	3.15144e-05	41	3.3408	2.59432e-05
2	1	0	1	0	3.511	1.15081	1.15058	0.0295979	1	3.54174e-05	41	3.4908	3.40547e-05
2	1	0	1	0	3.6609	1.1808	1.18052	0.0427129	1	4.07253e-05	41	3.6407	5.04236e-05
2	1	0	1	0	3.8108	1.21078	1.2105	0.065957	1	4.87406e-05	41	3.7906	7.98407e-05
2	1	0	1	0	3.9607	1.24077	1.24049	0.0995934	1	6.10308e-05	41	3.9405	0.000123545
2	1	0	1	0	4.1406	1.27675	1.2765	0.149448	1	8.32234e-05	40	4.1204	0.00019077
2	1	0	1	0	4.2906	1.30673	1.30646	0.190405	1	0.000108776	40	4.2704	0.000248757
2	1	0	1	0	4.4405	1.33672	1.33647	0.225003	1	0.000140016	40	4.4203	0.000300709
2	1	0	1	0	4.5904	1.3667	1.36645	0.251747	1	0.00017586	40	4.5702	0.000344
2	1	0	1	0	4.7403	1.39669	1.39642	0.269376	1	0.00021504	40	4.7201	0.000376163
2	1	0	1	0	4.8903	1.42667	1.4264	0.27733	1	0.000256161	40	4.8701	0.000395583
2	1	0	1	0	5.0402	1.45666	1.4564	0.277191	1	0.000297826	40	5.02	0.000403701
2	1	0	1	0	5.1901	1.48664	1.48638	0.271974	1	0.000339029	40	5.1699	0.000404257
2	1	0	1	0	5.3301	1.48534	1.48503	0.172648	1	0.000372746	40	5.3099	0.000256388
2	1	0	1	0	5.48	1.45536	1.45506	0.0834205	1	0.000390908	40	5.4598	0.000121382
2	1	0	1	0	5.6299	1.42537	1.42506	0.0444862	1	0.000400141	40	5.6097	6.33954e-05
2	1	0	1	0	5.8098	1.38939	1.38907	0.0218814	1	0.000405964	41	5.7896	3.03948e-05
2	1	0	1	0	5.9598	1.35941	1.35912	0.0120323	1	0.000408445	41	5.9396	1.63533e-05
2	1	0	1	0	6.1097	1.32942	1.32911	0.00608086	1	0.000409772	41	6.0895	8.08215e-06
2	1	0	1	0	6.2596	1.29944	1.29914	0.00232397	1	0.000410385	41	6.2394	3.01917e-06
2	0	0	1	0	6.4395	1.26345	1.26316	-0.000732997	1	0.000410514	42	0.045	-9.25896e-07
2	0	0	1	0	6.5894	1.23347	1.23321	-0.00275261	1	0.00041024	42	0.1949	-3.39454e-06
2	0	0	1	0	6.7394	1.20348	1.20321	-0.00464366	1	0.000409678	42	0.3449	-5.58732e-06
2	0	0	1	0	6.8893	1.1735	1.17324	-0.00677373	1	0.000408825	42	0.4948	-7.94724e-06
2	0	0	1	0	7.0392	1.14351	1.14326	-0.00926202	1	0.000407632	42	0.6447	-1.05889e-05
2	0	0	1	0	7.2191	1.10753	1.10724	-0.0135457	1	0.000405616	41	0.8246	-1.49984e-05
2	0	0	1	0	7.369	1.07755	1.07726	-0.0189478	1	0.000403208	41	0.9745	-2.04117e-05
2	0	0	1	0	7.519	1.04756	1.04729	-0.0272934	1	0.00039979	41	1.1245	-2.85842e-05
2	0	0	1	0	7.6689	1.01758	1.0173	-0.0410056	1	0.000394761	41	1.2744	-4.1715e-05
2	0	0	1	0	7.8188	0.987594	0.987325	-0.0648508	1	0.000386997	41	1.4243	-6.40288e-05
2	0	0	1	0	7.9837	0.954611	0.954324	-0.115758	1	0.000372633	41	1.5892	-0.00011047
2	0	0	1	0	8.1486	0.921641	0.921357	-0.211037	1	0.000346563	40	1.7541	-0.000194441
2	0	0	1	0	8.2986	0.891643	0.891369	-0.311184	1	0.000306901	40	1.9041	-0.00027738
2	0	0	1	0	8.4485	0.861658	0.861388	-0.312475	1	0.000258459	40	2.054	-0.000269162
2	0	0	1	0	8.5984	0.831673	0.831382	-0.224552	1	0.000217838	40	2.2039	-0.000186688
2	0	0	1	0	8.7483	0.801688	0.801392	-0.144633	1	0.000190574	40	2.3538	-0.000115908
2	0	0	1	0	8.8983	0.771703	0.771405	-0.093587	1	0.000173021	40	2.5038	-7.21934e-05
2	0	0	1	0	9.0482	0.741719	0.741423	-0.0622585	1	0.000161525	40	2.6537	-4.61599e-05
2	0	0	1	0	9.1981	0.711734	0.711437	-0.042972	1	0.000153759	40	2.8036	-3.05719e-05
2	0	0	1	0	9.378	0.675752	0.675459	-0.0298548	1	0.000147273	41	2.9835	-2.01657e-05
2	0	0	1	0	9.528	0.645758	0.645474	-0.0241066	1	0.000143269	41	3.1335	-1.55602e-05
2	0	0	1	0	9.6779	0.615783	0.6155	-0.020908	1	0.000139915	41	3.2834	-1.28689e-05
2	0	0	1	0	9.8278	0.585798	0.585499	-0.0192412	1	0.000136905	41	3.4333	-1.12657e-05
2	0	0	1	0	9.9777	0.555813	0.555521	-0.0179434	1	0.000134112	41	3.5832	-9.96794e-06
2	0	0	1	0	10.1276	0.525828	0.525524	-0.0164328	1	0.000131528	41	3.7331	-8.63581e-06
2	0	0	1	0	10.2776	0.495844	0.495543	-0.0149597	1	0.000129178	41	3.8831	-7.4132e-06
2	0	0	1	0	10.4275	0.465859	0.465576	-0.0139931	1	0.000127015	41	4.033	-6.51485e-06
2	0	0	1	0	10.5774	0.435874	0.435565	-0.0132838	1	0.000124973	41	4.1829	-5.78598e-06
2	0	0	1	0	10.7273	0.405889	0.405573	-0.0127832	1	0.000123021	41	4.3328	-5.1845e-06
2	0	0	1	0	10.8773	0.375904	0.375619	-0.0124477	1	0.00012113	41	4.4828	-4.67559e-06
2	0	0	1	0	11.0272	0.34592	0.34562	-0.0122191	1	0.000119282	41	4.6327	-4.22317e-06
2	0	0	1	0	11.1771	0.315935	0.315642	-0.0119762	1	0.000117471	41	4.7826	-3.78021e-06
2	0	0	1	0	11.327	0.28595	0.285661	-0.0117641	1	0.000115696	41	4.9325	-3.36056e-06
2	0	0	1	0	11.477	0.255965	0.255678	-0.011686	1	0.000113944	41	5.0825	-2.98787e-06
2	0	0	1	0	11.6269	0.22598	0.225706	-0.0117448	1	0.000112195	41	5.2324	-2.65088e-06
2	0	0	1	0	11.7768	0.195996	0.195719	-0.0119219	1	0.000110428	41	5.3823	-2.33334e-06
2	0	0	1	0	11.9267	0.166011	0.165733	-0.0122085	1	0.000108623	41	5.5322	-2.02334e-06
2	0	0	1	0	12.0767	0.136026	0.135714	-0.0125021	1	0.00010677	41	5.6822	-1.69671e-06
2	0	0	1	0	12.2266	0.106041	0.105758	-0.012825	1	0.000104873	41	5.8321	-1.35635e-06
2	0	0	1	0	12.3765	0.0760566	0.0757392	-0.0133569	1	0.000102917	41	5.982	-1.01165e-06
2	0	0	1	0	12.5264	0.0460718	0.0457597	-0.0142198	1	0.000100859	41	6.1319	-6.50693e-07
2	0	0	1	0	12.6764	0.0160871	0.0158011	-0.0155732	1	9.86347e-05	41	6.2819	-2.46073e-07
2	0	0	1	0	12.8263	-0.0138977	-0.0142066	-0.0175558	1	9.61595e-05	41	6.4318	2.49407e-07
2	0	0	1	0	12.9762	-0.0438825	-0.044184	-0.0200896	1	9.33415e-05	41	6.5817	8.87638e-07
2	0	0	1	0	13.1261	-0.0738673	-0.0741625	-0.0225551	1	9.01395e-05	41	6.7316	1.67275e-06
2	0	0	1	0	13.276	-0.103852	-0.104155	-0.0242048	1	8.66251e-05	41	6.8815	2.52104e-06
2	0	0	1	0	13.426	-0.133837	-0.13411	-0.0244855	1	8.29633e-05	41	7.0315	3.28374e-06
2	0	0	1	0	13.5759	-0.163822	-0.164096	-0.0239808	1	7.93229e-05	41	7.1814	3.93515e-06
2	0	0	1	0	13.7258	-0.193807	-0.194101	-0.0231576	1	7.57884e-05	41	7.3313	4.49491e-06
2	0	0	1	0	13.8757	-0.223791	-0.224094	-0.0224211	1	7.23737e-05	41	7.4812	5.02443e-06
2	0	0	1	0	14.0257	-0.253776	-0.254088	-0.0219703	1	6.90485e-05	41	7.6312	5.58238e-06
2	0	0	1	0	14.1756	-0.283761	-0.284061	-0.0218926	1	6.57662e-05	41	7.7811	6.21885e-06
2	0	0	1	1	14.3151	-0.288359	-0.288615	-0.0140996	1	6.30439e-05	41	7.9206	4.06934e-06
2	0	0	1	1	14.465	-0.258374	-0.258633	-0.00939276	1	6.13308e-05	41	8.0705	2.42928e-06
2	0	0	1	1	14.615	-0.228389	-0.228645	-0.00708337	1	6.01063e-05	41	8.2205	1.61958e-06
2	0	0	1	1	14.7649	-0.198404	-0.198657	-0.00547786	1	5.91693e-05	41	8.3704	1.08822e-06
2	0	0	1	1	14.9148	-0.168419	-0.168657	-0.00419632	1	5.84448e-05	41	8.5203	7.07739e-07
2	0	0	1	1	15.0947	-0.132438	-0.132704	-0.00282012	1	5.78115e-05	42	8.7002	3.74242e-07
2	0	0	1	1	15.2446	-0.102453	-0.102697	-0.00157724	1	5.74844e-05	42	8.8501	1.61977e-07
2	0	0	1	1	15.3946	-0.072468	-0.0727118	-0.000382335	1	5.73395e-05	42	9.0001	2.78003e-08
2	1	0	1	1	15.5445	-0.0424832	-0.0427301	0.000895832	1	5.73829e-05	42	0.105	-3.8279e-08
2	1	0	1	1	15.6944	-0.0124984	-0.0127465	0.00215912	1	5.76178e-05	42	0.2549	-2.75211e-08
2	1	0	1	1	15.8443	0.0174863	0.017236	0.00340524	1	5.80399e-05	42	0.4048	5.86927e-08
2	1	0	1	1	15.9943	0.0474711	0.04722	0.0044783	1	5.86359e-05	42	0.5548	2.11465e-07
2	1	0	1	1	16.1442	0.0774559	0.0772334	0.00537858	1	5.93815e-05	42	0.7047	4.15406e-07
2	1	0	1	1	16.2941	0.107441	0.107196	0.00604405	1	6.02448e-05	42	0.8546	6.47898e-07
2	1	0	1	1	16.444	0.137425	0.137197	0.00653895	1	6.11933e-05	42	1.0045	8.97123e-07
2	1	0	1	1	16.594	0.16741	0.167173	0.00689247	1	6.22021e-05	42	1.1545	1.15224e-06
2	1	0	1	1	16.7439	0.197395	0.197155	0.00712596	1	6.3252e-05	42	1.3044	1.40491e-06
2	1	0	1	1	16.8938	0.22738	0.227145	0.00733112	1	6.43332e-05	42	1.4543	1.66522e-06
2	1	0	1	1	17.0437	0.257365	0.257124	0.00750016	1	6.54414e-05	42	1.6042	1.92848e-06
2	1	0	1	1	17.1937	0.287349	0.287104	0.00769602	1	6.65775e-05	42	1.7542	2.20956e-06
2	1	0	1	1	17.3436	0.317334	0.317071	0.00789861	1	6.77438e-05	42	1.9041	2.50442e-06
2	1	0	1	1	17.4935	0.347319	0.347073	0.00819805	1	6.89482e-05	42	2.054	2.84532e-06
2	1	0	1	1	17.6434	0.377304	0.377055	0.0085549	1	7.02003e-05	42	2.2039	3.22567e-06
2	1	0	1	1	17.7934	0.407288	0.407026	0.00899641	1	7.151e-05	42	2.3539	3.66177e-06
2	1	0	1	1	17.9433	0.437273	0.437012	0.00942549	1	7.2886e-05	42	2.5038	4.11905e-06
2	1	0	1	1	17.9998	0.448618	0.448271	0.00960761	1	7.34244e-05	42	2.5603	4.30681e-06