File: Python/Data/GoldElectrode/240313/240313-CVEIS_Activation-0p5H2SO4-Ag_AgCl_BLF8-Au_RDE-80cycles_10_PEIS_C15.mpt
EC-Lab ASCII FILE
Nb header lines : 66

Potentio Electrochemical Impedance Spectroscopy

Run on channel : 15 (SN 19485)
User :
Electrode connection : standard
Potential control : Ewe
Ewe ctrl range : min = -2.50 V, max = 2.50 V
Ewe,I filtering : 50 kHz
Safety Limits :
	Do not start on E overload
Channel : Floating
Acquisition started on : 03/13/2024 15:25:11.595
Loaded Setting File :  C:\Data\mathias\GoldElectrode\240308-CVEIS_Activation-0p5H2SO4-Ag_AgCl_BLF8-Au_RDE-80cycles-C15.mps
Saved on :
	File : 240313-CVEIS_Activation-0p5H2SO4-Ag_AgCl_BLF8-Au_RDE-80cycles_10_PEIS_C15.mpr
	Directory : C:\Data\mathias\GoldElectrode\
	Host : 192.168.0.1
Device : VMP-300 (SN 0826)
Address : USB
EC-Lab for windows v11.52 (software)
Internet server v11.52 (firmware)
Command interpretor v11.52 (firmware)
Electrode material :
Initial state :
Electrolyte :
Comments :
Cable : special
Electrode surface area : 0.001 cm²
Characteristic mass : 0.001 g
Equivalent Weight : 0.000 g/eq.
Density : 0.000 g/cm3
Volume (V) : 0.001 cm³
Record EIS quality indicators
Cycle Definition : Charge/Discharge alternance
Mode                Single sine
E (V)               0.0000
vs.                 Eoc
tE (h:m:s)          0:00:0.0000
record              0
dI                  0.000
unit dI             mA
dt (s)              0.000
fi                  100.000
unit fi             kHz
ff                  100.000
unit ff             Hz
Nd                  10
Points              per decade
spacing             Logarithmic
Va (mV)             5.0
pw                  0.10
Na                  2
corr                0
E range min (V)     -2.500
E range max (V)     2.500
I Range             Auto
Bandwidth           8
nc cycles           0
goto Ns'            0
nr cycles           0
inc. cycle          0

freq/Hz	Re(Z)/Ohm	-Im(Z)/Ohm	|Z|/Ohm	Phase(Z)/deg	time/s	<Ewe>/V	<I>/mA	Cs/µF	Cp/µF	cycle number	I Range	|Ewe|/V	|I|/A	Ns	(Q-Qo)/mA.h	THD Ewe/%	NSD Ewe/%	NSR Ewe/%	|Ewe h2|/V	|Ewe h3|/V	|Ewe h4|/V	|Ewe h5|/V	|Ewe h6|/V	|Ewe h7|/V	THD I/%	NSD I/%	NSR I/%	|I h2|/A	|I h3|/A	|I h4|/A	|I h5|/A	|I h6|/A	|I h7|/A	Re(Y)/Ohm-1	Im(Y)/Ohm-1	|Y|/Ohm-1	Phase(Y)/deg	Re(C)/nF	Im(C)/nF	|C|/nF	Phase(C)/deg	Re(M)	Im(M)	|M|	Phase(M)/deg	Re(Permittivity)	Im(Permittivity)	|Permittivity|	Phase(Permittivity)/deg	Re(Resistivity)/Ohm.cm	Im(Resistivity)/Ohm.cm	|Resistivity|/Ohm.cm	Phase(Resistivity)/deg	Re(Conductivity)/mS/cm	Im(Conductivity)/mS/cm	|Conductivity|/mS/cm	Phase(Conductivity)/deg	Tan(Delta)	Loss Angle(Delta)/deg	dq/mA.h
100004	7.49876	0.596646	7.52246	-4.54921	1550.66	0.448483	-0.0186737	2.66739	0.0167804	1	38	0.00489981	0.000651358	0	-4.48133e-06	2.2838	1.3247	47.3647	3.07442e-05	3.85185e-05	3.6749e-05	1.72109e-05	8.41026e-05	3.15631e-05	0.370196	0.161133	5.83768	5.94543e-07	1.02252e-06	7.78785e-07	1.25727e-06	8.43329e-07	1.09733e-06	0.132516	0.0105438	0.132935	4.54921	16.7804	210.899	211.565	-85.4508	0.0000000E+000	0.0000000E+000	0.0000000E+000	85.4508	0.0000000E+000	0.0000000E+000	0.0000000E+000	-85.4508	0.0000000E+000	0.0000000E+000	0.0000000E+000	-4.54921	0.0000000E+000	0.0000000E+000	0.0000000E+000	4.54921	12.5682	85.4508	-4.48133e-06
63093.8	7.49874	0.515235	7.51642	-3.93059	1552.29	0.448444	-0.00887427	4.89585	0.0230047	1	38	0.00520279	0.00069219	0	-8.56396e-06	1.99315	1.65387	43.8756	3.71968e-05	5.09114e-05	3.85015e-05	2.55544e-05	3.50128e-05	4.8002e-05	0.246588	0.11879	5.39701	4.90606e-07	9.50486e-07	3.58338e-07	6.70414e-07	7.57102e-07	4.7418e-07	0.132729	0.00911976	0.133042	3.93059	23.0047	334.811	335.6	-86.0694	0.0000000E+000	0.0000000E+000	0.0000000E+000	86.0694	0.0000000E+000	0.0000000E+000	0.0000000E+000	-86.0694	0.0000000E+000	0.0000000E+000	0.0000000E+000	-3.93059	0.0000000E+000	0.0000000E+000	0.0000000E+000	3.93059	14.554	86.0694	-2.46256e-06
39814.1	7.49826	0.489523	7.51422	-3.73525	1553.92	0.448468	-0.00908653	8.16602	0.0346568	1	38	0.00513165	0.000682925	0	-1.39503e-05	1.63964	0.777591	46.684	2.69423e-05	4.1961e-05	2.19818e-05	4.80713e-05	1.93579e-05	3.12336e-05	0.297935	0.208609	5.5406	1.11867e-06	9.01612e-07	5.03143e-07	8.15065e-07	9.59151e-07	4.05228e-07	0.132798	0.00866972	0.133081	3.73525	34.6568	530.855	531.985	-86.2648	0.0000000E+000	0.0000000E+000	0.0000000E+000	86.2648	0.0000000E+000	0.0000000E+000	0.0000000E+000	-86.2648	0.0000000E+000	0.0000000E+000	0.0000000E+000	-3.73525	0.0000000E+000	0.0000000E+000	0.0000000E+000	3.73525	15.3175	86.2648	-2.88379e-06
25116.9	7.53221	0.584703	7.55487	-4.4388	1555.55	0.448455	-0.00857078	10.8372	0.0649135	1	38	0.00512071	0.000677802	0	-1.7054e-05	2.4224	1.51044	45.5982	6.13274e-05	7.26496e-05	4.10625e-05	2.97915e-05	3.44912e-05	4.17231e-05	0.251199	0.244212	5.5204	7.07258e-07	1.05094e-06	4.79336e-07	6.02135e-07	5.92691e-07	3.16591e-07	0.131968	0.0102443	0.132365	4.4388	64.9135	836.223	838.739	-85.5612	0.0000000E+000	0.0000000E+000	0.0000000E+000	85.5612	0.0000000E+000	0.0000000E+000	0.0000000E+000	-85.5612	0.0000000E+000	0.0000000E+000	0.0000000E+000	-4.4388	0.0000000E+000	0.0000000E+000	0.0000000E+000	4.4388	12.8821	85.5612	-1.13145e-06
15847.7	7.66493	0.796361	7.70619	-5.93156	1557.18	0.448457	-0.00754113	12.6109	0.134674	1	38	0.0051223	0.000664699	0	-1.84165e-05	2.6768	1.73119	46.3486	4.12389e-05	5.14142e-05	1.65791e-05	9.57612e-05	2.27688e-05	6.53332e-05	0.307957	0.108667	5.71148	7.11585e-07	4.34465e-07	7.44258e-07	8.83035e-07	5.50077e-07	1.22456e-06	0.129071	0.0134101	0.129766	5.93156	134.675	1296.23	1303.21	-84.0684	0.0000000E+000	0.0000000E+000	0.0000000E+000	84.0684	0.0000000E+000	0.0000000E+000	0.0000000E+000	-84.0684	0.0000000E+000	0.0000000E+000	0.0000000E+000	-5.93156	0.0000000E+000	0.0000000E+000	0.0000000E+000	5.93156	9.62494	84.0684	-4.93369e-07
10002.2	7.67896	1.14363	7.76365	-8.47082	1558.81	0.448459	-0.00809785	13.9135	0.30191	1	38	0.00500283	0.000644391	0	-2.26752e-05	2.18427	1.14482	46.8021	4.98632e-05	5.24398e-05	3.38343e-05	3.55455e-05	2.69417e-05	4.64377e-05	0.324197	0.150187	5.73518	6.5762e-07	7.64482e-07	9.28247e-07	4.93117e-07	6.7442e-07	1.11501e-06	0.1274	0.0189738	0.128805	8.47082	301.909	2027.19	2049.54	-81.5292	0.0000000E+000	0.0000000E+000	0.0000000E+000	81.5292	0.0000000E+000	0.0000000E+000	0.0000000E+000	-81.5292	0.0000000E+000	0.0000000E+000	0.0000000E+000	-8.47082	0.0000000E+000	0.0000000E+000	0.0000000E+000	8.47082	6.71455	81.5292	-3.14833e-06
6307.74	7.84398	1.57833	8.00119	-11.3769	1560.55	0.448339	-0.00735866	15.9863	0.622063	1	38	0.00520238	0.000650201	0	-2.57965e-05	2.74008	1.64288	45.033	5.30653e-05	0.000106058	3.98433e-05	3.66469e-05	2.53739e-05	3.74086e-05	0.368024	0.11094	6.02861	4.44561e-07	1.67026e-06	1.19035e-06	6.99255e-07	4.53559e-07	7.45596e-07	0.122526	0.024654	0.124981	11.3769	622.063	3091.53	3153.49	-78.6231	0.0000000E+000	0.0000000E+000	0.0000000E+000	78.6231	0.0000000E+000	0.0000000E+000	0.0000000E+000	-78.6231	0.0000000E+000	0.0000000E+000	0.0000000E+000	-11.3769	0.0000000E+000	0.0000000E+000	0.0000000E+000	11.3769	4.9698	78.6231	-1.40957e-06
3981.28	7.92894	2.37074	8.27578	-16.6466	1562.28	0.448354	-0.00726742	16.8622	1.38377	1	38	0.00527898	0.000637883	0	-2.79574e-05	2.53892	1.41089	44.6444	6.56046e-05	3.80488e-05	3.99526e-05	4.79407e-05	6.40836e-05	5.17845e-05	0.278157	0.222496	6.02233	1.02322e-06	7.31673e-07	5.1091e-07	4.86625e-07	9.0892e-07	4.10085e-07	0.11577	0.0346151	0.120835	16.6466	1383.77	4628.02	4830.46	-73.3534	0.0000000E+000	0.0000000E+000	0.0000000E+000	73.3534	0.0000000E+000	0.0000000E+000	0.0000000E+000	-73.3534	0.0000000E+000	0.0000000E+000	0.0000000E+000	-16.6466	0.0000000E+000	0.0000000E+000	0.0000000E+000	16.6466	3.3445	73.3534	-1.06401e-06
2512.41	8.04316	3.48752	8.76671	-23.4416	1563.98	0.448357	-0.00772732	18.164	2.87457	1	38	0.00505761	0.00057691	0	-3.21129e-05	2.34376	1.12047	46.8097	4.07437e-05	5.1015e-05	4.7055e-05	4.59405e-05	3.23439e-05	5.74669e-05	0.298701	0.151571	6.52982	8.94859e-07	2.78845e-07	7.61922e-07	6.69845e-07	3.74375e-07	7.6357e-07	0.104653	0.0453778	0.114068	23.4416	2874.57	6629.53	7225.91	-66.5584	0.0000000E+000	0.0000000E+000	0.0000000E+000	66.5584	0.0000000E+000	0.0000000E+000	0.0000000E+000	-66.5584	0.0000000E+000	0.0000000E+000	0.0000000E+000	-23.4416	0.0000000E+000	0.0000000E+000	0.0000000E+000	23.4416	2.30627	66.5584	-3.26136e-06
1584.49	8.15204	5.40534	9.78128	-33.547	1565.47	0.44834	-0.00783345	18.5826	5.67494	1	38	0.00511065	0.000522493	0	-3.55069e-05	2.15767	1.33791	46.1991	6.00622e-05	3.40959e-05	1.42549e-05	3.91572e-05	5.86078e-05	4.18963e-05	0.330679	0.278256	7.60429	1.15552e-06	6.78441e-07	6.19919e-07	3.03336e-07	3.20357e-07	5.89198e-07	0.085207	0.0564978	0.102236	33.547	5674.94	8558.64	10269.1	-56.453	0.0000000E+000	0.0000000E+000	0.0000000E+000	56.453	0.0000000E+000	0.0000000E+000	0.0000000E+000	-56.453	0.0000000E+000	0.0000000E+000	0.0000000E+000	-33.547	0.0000000E+000	0.0000000E+000	0.0000000E+000	33.547	1.50815	56.453	-1.98335e-06
999.682	8.25904	8.38927	11.7725	-45.4482	1566.96	0.448346	-0.00784835	18.9773	9.63708	1	38	0.00507968	0.000431487	0	-3.86429e-05	2.65236	1.44222	47.9646	4.09109e-05	3.02822e-05	6.60726e-05	5.18665e-05	2.83714e-05	8.61169e-05	0.61447	0.420802	9.35004	9.24419e-07	1.25511e-06	1.13589e-06	4.61637e-07	9.56579e-07	1.24433e-06	0.0595926	0.0605323	0.0849438	45.4482	9637.08	9487.48	13523.5	-44.5518	0.0000000E+000	0.0000000E+000	0.0000000E+000	44.5518	0.0000000E+000	0.0000000E+000	0.0000000E+000	-44.5518	0.0000000E+000	0.0000000E+000	0.0000000E+000	-45.4482	0.0000000E+000	0.0000000E+000	0.0000000E+000	45.4482	0.984477	44.5518	-1.4287e-06
631.01	8.46059	12.7923	15.337	-56.52	1568.44	0.448362	-0.00523234	19.7168	13.7167	1	38	0.00496776	0.000323907	0	-4.07517e-05	3.07932	1.44952	48.4602	3.34953e-05	0.000116933	1.76261e-05	4.1676e-05	6.8273e-05	3.56847e-05	0.808521	0.442612	12.2578	6.53886e-07	2.24938e-06	6.12903e-07	4.98223e-07	6.73633e-07	3.62874e-07	0.0359683	0.0543834	0.0652018	56.52	13716.7	9072.02	16445.4	-33.48	0.0000000E+000	0.0000000E+000	0.0000000E+000	33.48	0.0000000E+000	0.0000000E+000	0.0000000E+000	-33.48	0.0000000E+000	0.0000000E+000	0.0000000E+000	-56.52	0.0000000E+000	0.0000000E+000	0.0000000E+000	56.52	0.661384	33.48	-6.83017e-07
398.089	8.94639	20.1294	22.028	-66.0376	1569.93	0.448326	-0.00482644	19.8613	16.5852	1	38	0.00496448	0.000225371	0	-4.23976e-05	2.29183	1.07766	47.1842	2.1461e-05	8.03383e-05	2.58517e-05	4.64803e-05	3.44946e-05	3.65361e-05	0.833637	0.442712	16.9897	8.42719e-07	6.52875e-07	7.63657e-07	5.95003e-07	9.15407e-07	4.86152e-07	0.0184373	0.0414841	0.0453968	66.0376	16585.2	7371.19	18149.5	-23.9624	0.0000000E+000	0.0000000E+000	0.0000000E+000	23.9624	0.0000000E+000	0.0000000E+000	0.0000000E+000	-23.9624	0.0000000E+000	0.0000000E+000	0.0000000E+000	-66.0376	0.0000000E+000	0.0000000E+000	0.0000000E+000	66.0376	0.444443	23.9624	-8.38158e-07
251.206	9.38089	31.4703	32.8387	-73.4014	1571.67	0.448351	-0.000507911	20.1321	18.4892	1	39	0.0050597	0.000154077	0	-4.33664e-05	2.05849	1.10501	44.018	4.31468e-05	5.34565e-05	4.65462e-05	3.72633e-05	1.7532e-05	3.80835e-05	0.879259	0.411433	12.4554	5.02921e-07	8.60957e-07	2.75844e-07	6.76617e-07	4.19326e-07	2.86581e-07	0.00869905	0.0291829	0.0304519	73.4014	18489.2	5511.4	19293.2	-16.5986	0.0000000E+000	0.0000000E+000	0.0000000E+000	16.5986	0.0000000E+000	0.0000000E+000	0.0000000E+000	-16.5986	0.0000000E+000	0.0000000E+000	0.0000000E+000	-73.4014	0.0000000E+000	0.0000000E+000	0.0000000E+000	73.4014	0.298087	16.5986	-1.25924e-07
158.529	10.8889	49.0381	50.2325	-77.4806	1573.16	0.448373	4.26527e-05	20.4728	19.5108	1	39	0.00495847	9.87104e-05	0	-4.32827e-05	1.74642	1.32668	46.4698	3.18855e-05	2.71583e-05	4.3027e-05	2.64897e-05	3.2608e-05	3.43456e-05	1.01148	0.683429	19.8298	3.87015e-07	3.11069e-07	6.09718e-07	4.1086e-07	3.65208e-07	2.18579e-07	0.00431535	0.0194341	0.0199074	77.4806	19510.8	4332.39	19986.1	-12.5194	0.0000000E+000	0.0000000E+000	0.0000000E+000	12.5194	0.0000000E+000	0.0000000E+000	0.0000000E+000	-12.5194	0.0000000E+000	0.0000000E+000	0.0000000E+000	-77.4806	0.0000000E+000	0.0000000E+000	0.0000000E+000	77.4806	0.222051	12.5194	-5.09974e-09
99.9682	12.4398	77.531	78.5226	-80.8847	1574.63	0.44836	-0.000474737	20.5345	20.0191	1	39	0.00495875	6.31506e-05	0	-4.35686e-05	2.53094	2.00372	44.7568	2.53868e-05	3.09021e-05	4.70071e-05	2.42612e-05	9.57069e-05	3.82762e-05	1.65804	1.3239	29.6752	3.5133e-07	2.94065e-07	3.98157e-07	5.01167e-07	5.27717e-07	3.12442e-07	0.00201754	0.0125744	0.0127352	80.8847	20019.1	3212.04	20275.1	-9.11535	0.0000000E+000	0.0000000E+000	0.0000000E+000	9.11535	0.0000000E+000	0.0000000E+000	0.0000000E+000	-9.11535	0.0000000E+000	0.0000000E+000	0.0000000E+000	-80.8847	0.0000000E+000	0.0000000E+000	0.0000000E+000	80.8847	0.160449	9.11536	-1.38953e-07