File: Python/Data/GoldElectrode/240313/240313-CVEIS_PostActivation-Fe2Fe3_5mM-HCl1M-0225RPM-Ag_AgCl_BLF8-Au_RDE_02_PEIS_C15.mpt
EC-Lab ASCII FILE
Nb header lines : 66

Potentio Electrochemical Impedance Spectroscopy

Run on channel : 15 (SN 19485)
User :
Electrode connection : standard
Potential control : Ewe
Ewe ctrl range : min = -1.00 V, max = 1.00 V
Ewe,I filtering : <None>
Safety Limits :
	Do not start on E overload
Channel : Floating
Acquisition started on : 03/13/2024 17:04:56.446
Loaded Setting File :  NONE
Saved on :
	File : 240313-CVEIS_PostActivation-Fe2Fe3_5mM-HCl1M-225RPM-Ag_AgCl_BLF8-Au_RDE_02_PEIS_C15.mpr
	Directory : C:\Data\mathias\GoldElectrode\
	Host : 192.168.0.1
Device : VMP-300 (SN 0826)
Address : USB
EC-Lab for windows v11.52 (software)
Internet server v11.52 (firmware)
Command interpretor v11.52 (firmware)
Electrode material :
Initial state :
Electrolyte :
Comments :
Cable : special
Electrode surface area : 0.001 cm²
Characteristic mass : 0.001 g
Equivalent Weight : 0.000 g/eq.
Density : 0.000 g/cm3
Volume (V) : 0.001 cm³
Record EIS quality indicators
Cycle Definition : Charge/Discharge alternance
Mode                Single sine
E (V)               0.0000
vs.                 Eoc
tE (h:m:s)          0:01:0.0000
record              0
dI                  0.000
unit dI             mA
dt (s)              0.000
fi                  400.000
unit fi             kHz
ff                  100.000
unit ff             mHz
Nd                  10
Points              per decade
spacing             Logarithmic
Va (mV)             5.0
pw                  0.10
Na                  3
corr                0
E range min (V)     -1.000
E range max (V)     1.000
I Range             Auto
Bandwidth           8
nc cycles           0
goto Ns'            0
nr cycles           0
inc. cycle          1

freq/Hz	Re(Z)/Ohm	-Im(Z)/Ohm	|Z|/Ohm	Phase(Z)/deg	time/s	<Ewe>/V	<I>/mA	Cs/µF	Cp/µF	cycle number	I Range	|Ewe|/V	|I|/A	Ns	(Q-Qo)/mA.h	THD Ewe/%	NSD Ewe/%	NSR Ewe/%	|Ewe h2|/V	|Ewe h3|/V	|Ewe h4|/V	|Ewe h5|/V	|Ewe h6|/V	|Ewe h7|/V	THD I/%	NSD I/%	NSR I/%	|I h2|/A	|I h3|/A	|I h4|/A	|I h5|/A	|I h6|/A	|I h7|/A	Re(Y)/Ohm-1	Im(Y)/Ohm-1	|Y|/Ohm-1	Phase(Y)/deg	Re(C)/nF	Im(C)/nF	|C|/nF	Phase(C)/deg	Re(M)	Im(M)	|M|	Phase(M)/deg	Re(Permittivity)	Im(Permittivity)	|Permittivity|	Phase(Permittivity)/deg	Re(Resistivity)/Ohm.cm	Im(Resistivity)/Ohm.cm	|Resistivity|/Ohm.cm	Phase(Resistivity)/deg	Re(Conductivity)/mS/cm	Im(Conductivity)/mS/cm	|Conductivity|/mS/cm	Phase(Conductivity)/deg	Tan(Delta)	Loss Angle(Delta)/deg	dq/mA.h
399996	3.22338	1.38472	3.50822	-23.2477	203.378	0.449739	-0.0127267	0.287344	0.0447664	1	38	0.00490894	0.00139927	0	-4.10436e-06	-1	-1	-1	0	0	0	0	0	0	-1	-1	-1	0	0	0	0	0	0	0.261901	0.112509	0.285045	23.2477	44.7664	104.208	113.417	-66.7523	0.0000000E+000	0.0000000E+000	0.0000000E+000	66.7523	0.0000000E+000	0.0000000E+000	0.0000000E+000	-66.7523	0.0000000E+000	0.0000000E+000	0.0000000E+000	-23.2477	0.0000000E+000	0.0000000E+000	0.0000000E+000	23.2477	2.32782	66.7523	-4.10436e-06
126447	3.18907	0.343718	3.20754	-6.1516	209.549	0.449753	-0.0183538	3.66191	0.0420503	1	37	0.00519475	0.00161954	0	-3.93252e-05	-1	-1	-1	0	0	0	0	0	0	-1	-1	-1	0	0	0	0	0	0	0.309971	0.0334087	0.311766	6.1516	42.0503	390.149	392.409	-83.8484	0.0000000E+000	0.0000000E+000	0.0000000E+000	83.8484	0.0000000E+000	0.0000000E+000	0.0000000E+000	-83.8484	0.0000000E+000	0.0000000E+000	0.0000000E+000	-6.1516	0.0000000E+000	0.0000000E+000	0.0000000E+000	6.1516	9.27814	83.8484	-4.40649e-06
39971.8	3.40886	0.543093	3.45185	-9.05216	215.289	0.449757	-0.0260588	7.3315	0.181483	1	37	0.00516215	0.00149547	0	-8.00142e-05	0.873063	0.502269	19.6795	2.08592e-05	1.11126e-05	1.40521e-05	1.94199e-05	1.57901e-05	2.175e-05	0.685843	0.347534	11.7981	5.0408e-06	4.85951e-06	3.88273e-06	3.17425e-06	3.28459e-06	3.65468e-06	0.286091	0.0455794	0.289699	9.05216	181.483	1139.12	1153.49	-80.9478	0.0000000E+000	0.0000000E+000	0.0000000E+000	80.9478	0.0000000E+000	0.0000000E+000	0.0000000E+000	-80.9478	0.0000000E+000	0.0000000E+000	0.0000000E+000	-9.05216	0.0000000E+000	0.0000000E+000	0.0000000E+000	9.05216	6.27676	80.9478	-7.23061e-06
12637.3	3.68195	0.949899	3.80251	-14.4662	221.03	0.449736	-0.0334103	13.2583	0.827374	1	37	0.00507599	0.00133491	0	-0.000125812	1.15553	0.667175	19.4842	2.67163e-05	1.48376e-05	2.03138e-05	2.50711e-05	2.03644e-05	2.26776e-05	0.695053	0.538443	13.3629	2.52911e-06	2.65259e-06	3.35643e-06	3.29163e-06	3.41904e-06	4.60759e-06	0.254646	0.0656957	0.262984	14.4662	827.374	3207.03	3312.03	-75.5338	0.0000000E+000	0.0000000E+000	0.0000000E+000	75.5338	0.0000000E+000	0.0000000E+000	0.0000000E+000	-75.5338	0.0000000E+000	0.0000000E+000	0.0000000E+000	-14.4662	0.0000000E+000	0.0000000E+000	0.0000000E+000	14.4662	3.87615	75.5338	-1.09886e-05
3993.72	4.0531	2.27938	4.65008	-29.3525	227.074	0.449604	-0.00280622	17.4834	4.20088	1	38	0.00501124	0.00107767	0	-0.000149136	1.05559	0.34381	19.6222	1.64828e-05	2.49206e-05	1.84082e-05	1.67407e-05	1.82312e-05	2.38699e-05	0.17734	0.262375	2.72727	1.20572e-06	5.90239e-07	2.62889e-07	7.08726e-07	7.27511e-07	5.46409e-07	0.187442	0.105414	0.21505	29.3525	4200.88	7469.81	8570.03	-60.6475	0.0000000E+000	0.0000000E+000	0.0000000E+000	60.6475	0.0000000E+000	0.0000000E+000	0.0000000E+000	-60.6475	0.0000000E+000	0.0000000E+000	0.0000000E+000	-29.3525	0.0000000E+000	0.0000000E+000	0.0000000E+000	29.3525	1.77816	60.6475	-3.27681e-06
1262.98	5.15935	6.11095	7.99766	-49.8263	232.607	0.449607	-0.00301104	20.6213	12.0395	1	38	0.0050373	0.000629846	0	-0.000153678	0.998568	0.595378	19.5504	1.70116e-05	1.97187e-05	1.76392e-05	1.02464e-05	2.3033e-05	2.65889e-05	0.474941	0.166757	4.65827	1.97667e-06	1.37716e-06	7.51295e-07	1.12327e-06	7.858e-07	3.97653e-07	0.0806619	0.0955395	0.125037	49.8263	12039.5	10164.7	15756.6	-40.1737	0.0000000E+000	0.0000000E+000	0.0000000E+000	40.1737	0.0000000E+000	0.0000000E+000	0.0000000E+000	-40.1737	0.0000000E+000	0.0000000E+000	0.0000000E+000	-49.8263	0.0000000E+000	0.0000000E+000	0.0000000E+000	49.8263	0.844278	40.1737	-3.34191e-07
399.106	10.4384	15.2264	18.4609	-55.5675	238.144	0.449644	0.000740746	26.1899	17.8166	1	38	0.00480651	0.000260362	0	-0.000155695	1.21459	0.712732	20.4203	2.43154e-05	1.71163e-05	1.91648e-05	3.27408e-05	1.18904e-05	2.61115e-05	0.74551	0.312129	11.2839	1.07928e-06	7.17308e-07	5.88496e-07	4.69873e-07	9.35176e-07	3.69612e-07	0.0306288	0.0446778	0.0541685	55.5675	17816.6	12214.1	21601.3	-34.4325	0.0000000E+000	0.0000000E+000	0.0000000E+000	34.4325	0.0000000E+000	0.0000000E+000	0.0000000E+000	-34.4325	0.0000000E+000	0.0000000E+000	0.0000000E+000	-55.5675	0.0000000E+000	0.0000000E+000	0.0000000E+000	55.5675	0.685547	34.4325	-2.30999e-07
126.171	27.7327	27.0921	38.7697	-44.3305	243.92	0.449632	0.000352788	46.5605	22.7363	1	39	0.00478968	0.000123542	0	-0.000155277	1.00655	0.471186	21.8596	1.23153e-05	1.40077e-05	1.29536e-05	2.61819e-05	1.31557e-05	2.38763e-05	0.692075	0.305834	10.4126	3.87336e-07	2.15471e-07	2.77959e-07	4.59794e-07	2.85365e-07	3.16759e-07	0.0184505	0.0180243	0.0257934	44.3305	22736.3	23273.9	32536.3	-45.6695	0.0000000E+000	0.0000000E+000	0.0000000E+000	45.6695	0.0000000E+000	0.0000000E+000	0.0000000E+000	-45.6695	0.0000000E+000	0.0000000E+000	0.0000000E+000	-44.3305	0.0000000E+000	0.0000000E+000	0.0000000E+000	44.3305	1.02365	45.6695	-5.54471e-08
39.8851	52.6894	29.6721	60.4699	-29.3861	249.323	0.449654	8.36552e-05	134.481	32.3802	1	39	0.00474642	7.84923e-05	0	-0.000155018	1.26825	0.670614	21.5308	1.03021e-05	2.65728e-05	2.00345e-05	2.01791e-05	2.27863e-05	3.11174e-05	0.977778	0.567685	15.6817	2.76955e-07	2.9795e-07	2.55048e-07	2.30167e-07	2.38762e-07	3.91566e-07	0.0144094	0.00811466	0.0165372	29.3861	32380.2	57498.2	65988.8	-60.6139	0.0000000E+000	0.0000000E+000	0.0000000E+000	60.6139	0.0000000E+000	0.0000000E+000	0.0000000E+000	-60.6139	0.0000000E+000	0.0000000E+000	0.0000000E+000	-29.3861	0.0000000E+000	0.0000000E+000	0.0000000E+000	29.3861	1.77572	60.6139	-5.30496e-08
12.6144	73.4223	31.1259	79.7475	-22.9735	254.708	0.449641	0.000451381	405.353	61.7509	1	39	0.00475357	5.96078e-05	0	-0.000154853	0.714858	0.540287	15.493	1.61378e-05	1.25909e-05	1.06881e-05	1.3598e-05	1.19642e-05	1.24002e-05	0.959785	0.617034	15.2984	2.50313e-07	2.28724e-07	2.00975e-07	2.85225e-07	1.45375e-07	1.72479e-07	0.011545	0.00489427	0.0125396	22.9735	61750.8	145663	158212	-67.0265	0.0000000E+000	0.0000000E+000	0.0000000E+000	67.0265	0.0000000E+000	0.0000000E+000	0.0000000E+000	-67.0265	0.0000000E+000	0.0000000E+000	0.0000000E+000	-22.9735	0.0000000E+000	0.0000000E+000	0.0000000E+000	22.9735	2.35888	67.0265	-2.35804e-08
3.98597	95.2677	39.9598	103.309	-22.7555	262.342	0.449637	0.000648026	999.224	149.498	1	40	0.00476042	4.60795e-05	0	-0.000154192	1.26015	0.594469	20.615	1.38912e-05	1.63035e-05	2.05533e-05	2.05055e-05	2.78513e-05	3.18733e-05	0.456105	0.170084	2.83757	1.87146e-07	4.14162e-08	3.55557e-08	4.69926e-08	3.83653e-08	3.43416e-08	0.00892628	0.00374411	0.00967971	22.7555	149498	356416	386499	-67.2445	0.0000000E+000	0.0000000E+000	0.0000000E+000	67.2445	0.0000000E+000	0.0000000E+000	0.0000000E+000	-67.2445	0.0000000E+000	0.0000000E+000	0.0000000E+000	-22.7555	0.0000000E+000	0.0000000E+000	0.0000000E+000	22.7555	2.38409	67.2445	1.06424e-07
1.25968	125.587	59.6263	139.023	-25.3974	280.284	0.449644	0.000704087	2118.96	389.784	1	40	0.00474957	3.41638e-05	0	-0.000150222	0.471053	0.298528	10.4337	5.44289e-06	8.24496e-06	8.9833e-06	9.40162e-06	1.10078e-05	7.39536e-06	0.541937	0.181903	2.02189	1.75096e-07	2.11165e-08	2.20249e-08	4.08843e-08	2.19191e-08	5.74247e-09	0.00649786	0.00308505	0.00719304	25.3974	389784	820978	908810	-64.6026	0.0000000E+000	0.0000000E+000	0.0000000E+000	64.6026	0.0000000E+000	0.0000000E+000	0.0000000E+000	-64.6026	0.0000000E+000	0.0000000E+000	0.0000000E+000	-25.3974	0.0000000E+000	0.0000000E+000	0.0000000E+000	25.3974	2.10624	64.6026	1.34611e-06
0.398211	186.508	97.6299	210.515	-27.6304	335.449	0.44964	0.00108972	4093.77	880.486	1	41	0.00474785	2.25535e-05	0	-0.000139101	0.407569	0.18038	7.57558	5.52968e-06	9.94669e-06	6.52133e-06	7.77501e-06	9.29574e-06	5.76124e-06	0.730064	0.230822	0.590835	1.56673e-07	2.29737e-08	1.33336e-08	3.58305e-08	1.29853e-08	1.12592e-08	0.00420852	0.00220301	0.00475025	27.6304	880486	1.68204e+06	1.89856e+06	-62.3696	0.0000000E+000	0.0000000E+000	0.0000000E+000	62.3696	0.0000000E+000	0.0000000E+000	0.0000000E+000	-62.3696	0.0000000E+000	0.0000000E+000	0.0000000E+000	-27.6304	0.0000000E+000	0.0000000E+000	0.0000000E+000	27.6304	1.91035	62.3696	2.53073e-06
0.125939	299.361	88.5667	312.187	-16.481	498.254	0.449661	0.00213725	14268.9	1148.42	1	41	0.00474792	1.52086e-05	0	-6.57618e-05	0.219323	0.143939	4.35028	3.86775e-06	2.68907e-06	4.02073e-06	5.58992e-06	3.8633e-06	3.95074e-06	0.684573	0.432923	0.612805	9.96808e-08	1.44016e-08	1.08587e-08	2.14159e-08	4.32286e-09	5.08231e-09	0.0030716	0.00090874	0.0032032	16.481	1.14842e+06	3.88173e+06	4.04805e+06	-73.519	0.0000000E+000	0.0000000E+000	0.0000000E+000	73.519	0.0000000E+000	0.0000000E+000	0.0000000E+000	-73.519	0.0000000E+000	0.0000000E+000	0.0000000E+000	-16.481	0.0000000E+000	0.0000000E+000	0.0000000E+000	16.481	3.38006	73.519	2.32817e-05
0.0999518	317.258	77.6043	326.612	-13.7452	559.657	0.449652	0.00251852	20518.4	1158.38	1	41	0.00475023	1.4544e-05	0	-2.71552e-05	0.255007	0.122641	4.29	5.45572e-06	5.57279e-06	3.05933e-06	4.42363e-06	5.71144e-06	2.70324e-06	0.884018	0.407416	0.62017	1.24628e-07	8.19931e-09	1.77815e-08	1.91791e-08	5.73074e-09	7.40073e-09	0.00297406	0.000727483	0.00306174	13.7452	1.15838e+06	4.73565e+06	4.87526e+06	-76.2548	0.0000000E+000	0.0000000E+000	0.0000000E+000	76.2548	0.0000000E+000	0.0000000E+000	0.0000000E+000	-76.2548	0.0000000E+000	0.0000000E+000	0.0000000E+000	-13.7452	0.0000000E+000	0.0000000E+000	0.0000000E+000	13.7452	4.08815	76.2548	3.86066e-05