File: Python/Data/GoldElectrode/240313/240313-CVEIS_PostActivation-Fe2Fe3_5mM-HCl1M-1225RPM-Ag_AgCl_BLF8-Au_RDE_02_PEIS_C15.mpt
EC-Lab ASCII FILE
Nb header lines : 66

Potentio Electrochemical Impedance Spectroscopy

Run on channel : 15 (SN 19485)
User :
Electrode connection : standard
Potential control : Ewe
Ewe ctrl range : min = -1.00 V, max = 1.00 V
Ewe,I filtering : <None>
Safety Limits :
	Do not start on E overload
Channel : Floating
Acquisition started on : 03/13/2024 17:49:36.773
Loaded Setting File :  NONE
Saved on :
	File : 240313-CVEIS_PostActivation-Fe2Fe3_5mM-HCl1M-1225RPM-Ag_AgCl_BLF8-Au_RDE_02_PEIS_C15.mpr
	Directory : C:\Data\mathias\GoldElectrode\
	Host : 192.168.0.1
Device : VMP-300 (SN 0826)
Address : USB
EC-Lab for windows v11.52 (software)
Internet server v11.52 (firmware)
Command interpretor v11.52 (firmware)
Electrode material :
Initial state :
Electrolyte :
Comments :
Cable : special
Electrode surface area : 0.001 cm²
Characteristic mass : 0.001 g
Equivalent Weight : 0.000 g/eq.
Density : 0.000 g/cm3
Volume (V) : 0.001 cm³
Record EIS quality indicators
Cycle Definition : Charge/Discharge alternance
Mode                Single sine
E (V)               0.0000
vs.                 Eoc
tE (h:m:s)          0:01:0.0000
record              0
dI                  0.000
unit dI             mA
dt (s)              0.000
fi                  400.000
unit fi             kHz
ff                  100.000
unit ff             mHz
Nd                  10
Points              per decade
spacing             Logarithmic
Va (mV)             5.0
pw                  0.10
Na                  3
corr                0
E range min (V)     -1.000
E range max (V)     1.000
I Range             Auto
Bandwidth           8
nc cycles           0
goto Ns'            0
nr cycles           0
inc. cycle          1

freq/Hz	Re(Z)/Ohm	-Im(Z)/Ohm	|Z|/Ohm	Phase(Z)/deg	time/s	<Ewe>/V	<I>/mA	Cs/µF	Cp/µF	cycle number	I Range	|Ewe|/V	|I|/A	Ns	(Q-Qo)/mA.h	THD Ewe/%	NSD Ewe/%	NSR Ewe/%	|Ewe h2|/V	|Ewe h3|/V	|Ewe h4|/V	|Ewe h5|/V	|Ewe h6|/V	|Ewe h7|/V	THD I/%	NSD I/%	NSR I/%	|I h2|/A	|I h3|/A	|I h4|/A	|I h5|/A	|I h6|/A	|I h7|/A	Re(Y)/Ohm-1	Im(Y)/Ohm-1	|Y|/Ohm-1	Phase(Y)/deg	Re(C)/nF	Im(C)/nF	|C|/nF	Phase(C)/deg	Re(M)	Im(M)	|M|	Phase(M)/deg	Re(Permittivity)	Im(Permittivity)	|Permittivity|	Phase(Permittivity)/deg	Re(Resistivity)/Ohm.cm	Im(Resistivity)/Ohm.cm	|Resistivity|/Ohm.cm	Phase(Resistivity)/deg	Re(Conductivity)/mS/cm	Im(Conductivity)/mS/cm	|Conductivity|/mS/cm	Phase(Conductivity)/deg	Tan(Delta)	Loss Angle(Delta)/deg	dq/mA.h
399996	3.25484	1.38311	3.53652	-23.0225	203.253	0.442854	-0.00470171	0.287679	0.0440015	1	38	0.00497277	0.00140612	0	3.56758e-05	-1	-1	-1	0	0	0	0	0	0	-1	-1	-1	0	0	0	0	0	0	0.260242	0.110587	0.282764	23.0225	44.0015	103.548	112.509	-66.9775	0.0000000E+000	0.0000000E+000	0.0000000E+000	66.9775	0.0000000E+000	0.0000000E+000	0.0000000E+000	-66.9775	0.0000000E+000	0.0000000E+000	0.0000000E+000	-23.0225	0.0000000E+000	0.0000000E+000	0.0000000E+000	23.0225	2.35328	66.9775	3.56758e-05
126447	3.20285	0.357662	3.22276	-6.37182	209.426	0.44287	0.0219768	3.51914	0.0433439	1	37	0.00520856	0.00161618	0	5.50372e-05	-1	-1	-1	0	0	0	0	0	0	-1	-1	-1	0	0	0	0	0	0	0.308376	0.0344364	0.310293	6.37182	43.3439	388.143	390.555	-83.6282	0.0000000E+000	0.0000000E+000	0.0000000E+000	83.6282	0.0000000E+000	0.0000000E+000	0.0000000E+000	-83.6282	0.0000000E+000	0.0000000E+000	0.0000000E+000	-6.37182	0.0000000E+000	0.0000000E+000	0.0000000E+000	6.37182	8.95495	83.6282	6.75049e-06
39971.8	3.37692	0.595465	3.42902	-10.0004	215.167	0.442865	0.0206927	6.68668	0.201643	1	37	0.00516126	0.00150517	0	8.73101e-05	1.06997	0.697529	19.3889	3.21255e-05	1.01975e-05	2.07919e-05	1.52926e-05	2.01606e-05	2.26146e-05	0.652529	0.325724	11.8123	3.93032e-06	4.44336e-06	3.48599e-06	3.92755e-06	2.78979e-06	3.14103e-06	0.287198	0.0506427	0.291629	10.0004	201.643	1143.53	1161.17	-79.9996	0.0000000E+000	0.0000000E+000	0.0000000E+000	79.9996	0.0000000E+000	0.0000000E+000	0.0000000E+000	-79.9996	0.0000000E+000	0.0000000E+000	0.0000000E+000	-10.0004	0.0000000E+000	0.0000000E+000	0.0000000E+000	10.0004	5.67106	79.9996	6.79496e-06
12637.3	3.64638	1.24147	3.85193	-18.802	220.907	0.442875	0.0177707	10.1444	1.05377	1	37	0.00515137	0.00133735	0	0.000114185	1.14258	0.514389	19.561	1.7222e-05	1.89694e-05	3.13413e-05	2.20616e-05	1.88962e-05	1.49845e-05	0.628535	0.415291	13.2614	1.55458e-06	4.17144e-06	3.13869e-06	2.76608e-06	3.99932e-06	2.50132e-06	0.245757	0.0836722	0.25961	18.802	1053.77	3095.07	3269.54	-71.198	0.0000000E+000	0.0000000E+000	0.0000000E+000	71.198	0.0000000E+000	0.0000000E+000	0.0000000E+000	-71.198	0.0000000E+000	0.0000000E+000	0.0000000E+000	-18.802	0.0000000E+000	0.0000000E+000	0.0000000E+000	18.802	2.93714	71.198	6.37276e-06
3993.72	4.10114	3.14899	5.17064	-37.5182	226.951	0.442755	0.0029062	12.6553	4.69381	1	38	0.00518891	0.00100353	0	0.000129182	1.07689	0.444281	18.9836	1.79437e-05	1.78955e-05	2.48335e-05	2.3108e-05	1.91885e-05	2.28709e-05	0.194003	0.108678	2.9538	1.03294e-06	4.98333e-07	5.78815e-07	1.04208e-06	7.01996e-07	6.13514e-07	0.153397	0.117783	0.1934	37.5182	4693.81	6113.07	7707.23	-52.4818	0.0000000E+000	0.0000000E+000	0.0000000E+000	52.4818	0.0000000E+000	0.0000000E+000	0.0000000E+000	-52.4818	0.0000000E+000	0.0000000E+000	0.0000000E+000	-37.5182	0.0000000E+000	0.0000000E+000	0.0000000E+000	37.5182	1.30237	52.4818	1.7309e-06
1262.98	5.48674	8.57915	10.1836	-57.3993	232.48	0.442718	0.00350945	14.6886	10.4247	1	38	0.0048441	0.000475676	0	0.000133601	1.06352	0.740382	20.5685	1.06699e-05	1.43665e-05	2.2048e-05	2.02579e-05	2.37588e-05	2.56593e-05	0.568273	0.181796	6.18419	1.69994e-06	1.33221e-06	5.68995e-07	1.00795e-06	4.12178e-07	4.41124e-07	0.0529066	0.0827256	0.0981969	57.3993	10424.7	6667.06	12374.3	-32.6007	0.0000000E+000	0.0000000E+000	0.0000000E+000	32.6007	0.0000000E+000	0.0000000E+000	0.0000000E+000	-32.6007	0.0000000E+000	0.0000000E+000	0.0000000E+000	-57.3993	0.0000000E+000	0.0000000E+000	0.0000000E+000	57.3993	0.639544	32.6007	4.06513e-07
399.106	11.6774	22.5571	25.4005	-62.6303	238.017	0.442798	0.00666356	17.6786	13.9422	1	38	0.00463442	0.000182454	0	0.000140313	1.38325	0.760395	21.288	3.27842e-05	2.52069e-05	2.17132e-05	1.89615e-05	1.85876e-05	1.4242e-05	1.19143	0.328958	15.8976	1.4156e-06	1.05905e-06	6.98347e-07	7.97881e-07	4.45764e-07	2.7789e-07	0.0180992	0.0349623	0.0393693	62.6303	13942.2	7217.59	15699.6	-27.3697	0.0000000E+000	0.0000000E+000	0.0000000E+000	27.3697	0.0000000E+000	0.0000000E+000	0.0000000E+000	-27.3697	0.0000000E+000	0.0000000E+000	0.0000000E+000	-62.6303	0.0000000E+000	0.0000000E+000	0.0000000E+000	62.6303	0.517679	27.3697	1.80461e-06
126.171	36.2774	47.0071	59.3777	-52.3411	243.793	0.442737	0.00321464	26.8347	16.8181	1	39	0.00463572	7.80717e-05	0	0.000145626	1.03888	0.540074	23.1129	1.25139e-05	2.64215e-05	2.11473e-05	1.72369e-05	1.46935e-05	1.38806e-05	0.741326	0.351804	16.7068	2.59702e-07	2.95265e-07	2.04897e-07	2.1327e-07	1.15885e-07	1.85514e-07	0.0102894	0.0133326	0.0168413	52.3411	16818.1	12979.2	21244	-37.6589	0.0000000E+000	0.0000000E+000	0.0000000E+000	37.6589	0.0000000E+000	0.0000000E+000	0.0000000E+000	-37.6589	0.0000000E+000	0.0000000E+000	0.0000000E+000	-52.3411	0.0000000E+000	0.0000000E+000	0.0000000E+000	52.3411	0.771744	37.6589	1.02791e-06
39.8851	86.0167	59.6186	104.658	-34.726	249.197	0.442753	0.00333057	66.931	21.7194	1	39	0.00460118	4.3964e-05	0	0.000150652	1.05246	0.255491	22.6575	1.58703e-05	1.727e-05	2.21566e-05	1.78423e-05	2.23208e-05	1.65492e-05	1.34504	0.764802	28.3901	2.24071e-07	1.42331e-07	1.99341e-07	1.74907e-07	3.08234e-07	2.17216e-07	0.00785308	0.005443	0.00955495	34.726	21719.4	31336.4	38127.4	-55.274	0.0000000E+000	0.0000000E+000	0.0000000E+000	55.274	0.0000000E+000	0.0000000E+000	0.0000000E+000	-55.274	0.0000000E+000	0.0000000E+000	0.0000000E+000	-34.726	0.0000000E+000	0.0000000E+000	0.0000000E+000	34.726	1.44278	55.274	1.06048e-06
12.6144	131.358	54.8834	142.362	-22.676	254.87	0.442745	0.00321559	229.887	34.1669	1	40	0.00460871	3.23731e-05	0	0.000155661	1.61764	0.808476	29.53	1.52503e-05	3.40497e-05	2.53941e-05	2.77888e-05	2.73451e-05	3.22174e-05	0.379252	0.145832	5.55916	7.21078e-08	5.52839e-08	4.559e-08	4.55329e-08	3.11702e-08	2.29134e-08	0.00648135	0.00270801	0.00702433	22.676	34166.9	81775	88625.7	-67.324	0.0000000E+000	0.0000000E+000	0.0000000E+000	67.324	0.0000000E+000	0.0000000E+000	0.0000000E+000	-67.324	0.0000000E+000	0.0000000E+000	0.0000000E+000	-22.676	0.0000000E+000	0.0000000E+000	0.0000000E+000	22.676	2.3934	67.324	9.45012e-07
3.98597	167.438	54.4155	176.059	-18.0036	262.058	0.442742	0.00338427	733.775	70.0961	1	40	0.00460783	2.61721e-05	0	0.000162503	1.18913	0.567314	21.7006	2.60938e-05	2.00407e-05	2.29179e-05	2.14949e-05	2.36778e-05	1.48496e-05	0.461324	0.205303	5.01229	8.80199e-08	3.82625e-08	3.61697e-08	4.0816e-08	2.92462e-08	2.92914e-08	0.00540182	0.00175553	0.00567992	18.0036	70096.1	215688	226792	-71.9964	0.0000000E+000	0.0000000E+000	0.0000000E+000	71.9964	0.0000000E+000	0.0000000E+000	0.0000000E+000	-71.9964	0.0000000E+000	0.0000000E+000	0.0000000E+000	-18.0036	0.0000000E+000	0.0000000E+000	0.0000000E+000	18.0036	3.07703	71.9964	2.1435e-06
1.25968	218.109	58.5651	225.835	-15.0301	280	0.442753	0.00364681	2157.36	145.083	1	40	0.00459702	2.03556e-05	0	0.000179683	0.687867	0.306234	10.6726	1.22229e-05	1.07953e-05	9.41473e-06	1.52712e-05	7.46958e-06	1.31119e-05	0.480974	0.290375	3.43767	8.8574e-08	1.98719e-08	1.72239e-08	1.51861e-08	1.3748e-08	1.69576e-08	0.00427653	0.0011483	0.00442801	15.0301	145083	540321	559461	-74.9699	0.0000000E+000	0.0000000E+000	0.0000000E+000	74.9699	0.0000000E+000	0.0000000E+000	0.0000000E+000	-74.9699	0.0000000E+000	0.0000000E+000	0.0000000E+000	-15.0301	0.0000000E+000	0.0000000E+000	0.0000000E+000	15.0301	3.72422	74.9699	4.16176e-06
0.398211	266.767	32.2861	268.713	-6.90079	334.643	0.442762	0.00422316	12379.2	178.708	1	41	0.00459421	1.70971e-05	0	0.000238599	0.428703	0.170907	7.91276	6.95935e-06	9.53796e-06	1.00864e-05	4.49393e-06	6.91923e-06	3.26408e-06	0.492866	0.196231	0.730365	7.84574e-08	1.76066e-08	7.07401e-09	1.98291e-08	9.0117e-09	5.68795e-09	0.00369448	0.000447133	0.00372144	6.90079	178708	1.47659e+06	1.48736e+06	-83.0992	0.0000000E+000	0.0000000E+000	0.0000000E+000	83.0992	0.0000000E+000	0.0000000E+000	0.0000000E+000	-83.0992	0.0000000E+000	0.0000000E+000	0.0000000E+000	-6.90079	0.0000000E+000	0.0000000E+000	0.0000000E+000	6.90079	8.2626	83.0992	1.56675e-05
0.125939	291.74	10.8865	291.943	-2.13704	497.449	0.442749	0.00598197	116084	161.418	1	41	0.00459531	1.57404e-05	0	0.000474944	0.30804	0.164179	4.58342	5.70962e-06	6.73959e-06	4.00673e-06	7.49206e-06	5.45737e-06	3.71897e-06	0.428623	0.45675	0.603573	5.56056e-08	2.91315e-08	1.29199e-08	8.70065e-09	1.11713e-08	1.03414e-08	0.00342294	0.00012773	0.00342532	2.13704	161418	4.32574e+06	4.32875e+06	-87.863	0.0000000E+000	0.0000000E+000	0.0000000E+000	87.863	0.0000000E+000	0.0000000E+000	0.0000000E+000	-87.863	0.0000000E+000	0.0000000E+000	0.0000000E+000	-2.13704	0.0000000E+000	0.0000000E+000	0.0000000E+000	2.13704	26.7983	87.863	7.49312e-05
0.0999518	298.248	8.36415	298.365	-1.6064	558.851	0.442751	0.00664231	190374	149.608	1	41	0.00459505	1.54007e-05	0	0.000578883	0.276383	0.164548	4.94384	3.80422e-06	7.59042e-06	3.4211e-06	5.23034e-06	5.85594e-06	2.60995e-06	0.627251	0.397252	0.580799	9.04161e-08	9.08064e-09	1.5254e-08	2.37743e-08	6.97795e-09	1.17273e-08	0.00335028	9.39561e-05	0.0033516	1.6064	149608	5.33471e+06	5.3368e+06	-88.3936	0.0000000E+000	0.0000000E+000	0.0000000E+000	88.3936	0.0000000E+000	0.0000000E+000	0.0000000E+000	-88.3936	0.0000000E+000	0.0000000E+000	0.0000000E+000	-1.6064	0.0000000E+000	0.0000000E+000	0.0000000E+000	1.6064	35.6579	88.3936	0.000103939