File: Python/Data/GoldElectrode/240313/240313-CVEIS_Activation-0p5H2SO4-Ag_AgCl_BLF8-Au_RDE-80cycles_04_PEIS_C15.mpt
EC-Lab ASCII FILE
Nb header lines : 66

Potentio Electrochemical Impedance Spectroscopy

Run on channel : 15 (SN 19485)
User :
Electrode connection : standard
Potential control : Ewe
Ewe ctrl range : min = -2.50 V, max = 2.50 V
Ewe,I filtering : 50 kHz
Safety Limits :
	Do not start on E overload
Channel : Floating
Acquisition started on : 03/13/2024 15:25:11.595
Loaded Setting File :  C:\Data\mathias\GoldElectrode\240308-CVEIS_Activation-0p5H2SO4-Ag_AgCl_BLF8-Au_RDE-80cycles-C15.mps
Saved on :
	File : 240313-CVEIS_Activation-0p5H2SO4-Ag_AgCl_BLF8-Au_RDE-80cycles_04_PEIS_C15.mpr
	Directory : C:\Data\mathias\GoldElectrode\
	Host : 192.168.0.1
Device : VMP-300 (SN 0826)
Address : USB
EC-Lab for windows v11.52 (software)
Internet server v11.52 (firmware)
Command interpretor v11.52 (firmware)
Electrode material :
Initial state :
Electrolyte :
Comments :
Cable : special
Electrode surface area : 0.001 cm²
Characteristic mass : 0.001 g
Equivalent Weight : 0.000 g/eq.
Density : 0.000 g/cm3
Volume (V) : 0.001 cm³
Record EIS quality indicators
Cycle Definition : Charge/Discharge alternance
Mode                Single sine
E (V)               0.0000
vs.                 Eoc
tE (h:m:s)          0:00:0.0000
record              0
dI                  0.000
unit dI             mA
dt (s)              0.000
fi                  100.000
unit fi             kHz
ff                  100.000
unit ff             Hz
Nd                  10
Points              per decade
spacing             Logarithmic
Va (mV)             5.0
pw                  0.10
Na                  2
corr                0
E range min (V)     -2.500
E range max (V)     2.500
I Range             Auto
Bandwidth           8
nc cycles           0
goto Ns'            0
nr cycles           0
inc. cycle          0

freq/Hz	Re(Z)/Ohm	-Im(Z)/Ohm	|Z|/Ohm	Phase(Z)/deg	time/s	<Ewe>/V	<I>/mA	Cs/µF	Cp/µF	cycle number	I Range	|Ewe|/V	|I|/A	Ns	(Q-Qo)/mA.h	THD Ewe/%	NSD Ewe/%	NSR Ewe/%	|Ewe h2|/V	|Ewe h3|/V	|Ewe h4|/V	|Ewe h5|/V	|Ewe h6|/V	|Ewe h7|/V	THD I/%	NSD I/%	NSR I/%	|I h2|/A	|I h3|/A	|I h4|/A	|I h5|/A	|I h6|/A	|I h7|/A	Re(Y)/Ohm-1	Im(Y)/Ohm-1	|Y|/Ohm-1	Phase(Y)/deg	Re(C)/nF	Im(C)/nF	|C|/nF	Phase(C)/deg	Re(M)	Im(M)	|M|	Phase(M)/deg	Re(Permittivity)	Im(Permittivity)	|Permittivity|	Phase(Permittivity)/deg	Re(Resistivity)/Ohm.cm	Im(Resistivity)/Ohm.cm	|Resistivity|/Ohm.cm	Phase(Resistivity)/deg	Re(Conductivity)/mS/cm	Im(Conductivity)/mS/cm	|Conductivity|/mS/cm	Phase(Conductivity)/deg	Tan(Delta)	Loss Angle(Delta)/deg	dq/mA.h
100004	7.42835	0.757742	7.46689	-5.82441	390.347	0.448448	-0.0183125	2.10031	0.0216294	1	38	0.00479503	0.000642172	0	-5.20902e-06	2.18597	1.17968	47.9804	4.18574e-05	4.81565e-05	3.5662e-05	1.62921e-05	4.09391e-05	4.51058e-05	0.363105	0.175429	5.83831	7.1652e-07	1.20729e-06	4.31361e-07	1.16551e-06	5.21494e-07	1.02723e-06	0.133233	0.0135907	0.133924	5.82441	21.6295	212.039	213.14	-84.1756	0.0000000E+000	0.0000000E+000	0.0000000E+000	84.1756	0.0000000E+000	0.0000000E+000	0.0000000E+000	-84.1756	0.0000000E+000	0.0000000E+000	0.0000000E+000	-5.82441	0.0000000E+000	0.0000000E+000	0.0000000E+000	5.82441	9.80327	84.1756	-5.20902e-06
63093.8	7.52025	0.691385	7.55197	-5.2528	391.975	0.448476	-0.0077087	3.64849	0.0305797	1	38	0.00517148	0.000684786	0	-6.88666e-06	2.42564	1.46292	44.5436	6.64619e-05	8.67747e-05	2.86522e-05	1.72548e-05	3.21087e-05	3.35721e-05	0.282291	0.172221	5.49345	9.5354e-07	5.21905e-07	1.32414e-06	4.44946e-07	2.96e-07	3.5784e-07	0.13186	0.0121227	0.132416	5.2528	30.5797	332.618	334.021	-84.7472	0.0000000E+000	0.0000000E+000	0.0000000E+000	84.7472	0.0000000E+000	0.0000000E+000	0.0000000E+000	-84.7472	0.0000000E+000	0.0000000E+000	0.0000000E+000	-5.2528	0.0000000E+000	0.0000000E+000	0.0000000E+000	5.2528	10.8771	84.7472	-7.29705e-07
39814.1	7.61054	0.724295	7.64493	-5.43646	393.603	0.448443	-0.00790979	5.5191	0.0495395	1	38	0.00520733	0.000681147	0	-8.48922e-06	2.71889	1.16148	46.4743	7.32284e-05	3.30895e-05	3.88718e-05	5.55334e-05	5.04322e-05	7.47979e-05	0.333158	0.144844	5.59408	9.85445e-07	6.92935e-07	7.86003e-07	9.55949e-07	7.58564e-07	1.00153e-06	0.130217	0.0123928	0.130806	5.43646	49.5395	520.538	522.89	-84.5635	0.0000000E+000	0.0000000E+000	0.0000000E+000	84.5635	0.0000000E+000	0.0000000E+000	0.0000000E+000	-84.5635	0.0000000E+000	0.0000000E+000	0.0000000E+000	-5.43646	0.0000000E+000	0.0000000E+000	0.0000000E+000	5.43646	10.5075	84.5635	-1.28667e-06
25116.9	7.69105	0.87275	7.74041	-6.47401	395.232	0.448405	-0.00783531	7.26046	0.0923031	1	38	0.00515616	0.000666136	0	-1.19498e-05	2.23374	3.01761	45.3291	6.09617e-05	3.57351e-05	5.08674e-05	5.73389e-05	1.47568e-05	2.34695e-05	0.45437	0.26301	5.87931	8.92024e-07	1.29153e-06	1.53289e-06	6.51765e-07	1.42478e-06	1.10328e-06	0.128368	0.0145667	0.129192	6.47401	92.3031	813.414	818.635	-83.526	0.0000000E+000	0.0000000E+000	0.0000000E+000	83.526	0.0000000E+000	0.0000000E+000	0.0000000E+000	-83.526	0.0000000E+000	0.0000000E+000	0.0000000E+000	-6.47401	0.0000000E+000	0.0000000E+000	0.0000000E+000	6.47401	8.81243	83.526	-2.02327e-06
15847.7	7.84565	1.2619	7.94649	-9.13725	396.86	0.448488	-0.00800103	7.95845	0.200692	1	38	0.00516568	0.000650059	0	-1.48542e-05	2.09918	1.56427	45.2136	4.88396e-05	3.41135e-05	3.88764e-05	9.32103e-06	4.97951e-05	6.18302e-05	0.404263	0.130874	5.90362	9.01304e-07	7.19325e-07	9.46078e-07	1.43789e-06	7.71093e-07	1.13817e-06	0.124245	0.0199837	0.125842	9.13725	200.692	1247.77	1263.8	-80.8627	0.0000000E+000	0.0000000E+000	0.0000000E+000	80.8627	0.0000000E+000	0.0000000E+000	0.0000000E+000	-80.8627	0.0000000E+000	0.0000000E+000	0.0000000E+000	-9.13725	0.0000000E+000	0.0000000E+000	0.0000000E+000	9.13725	6.21732	80.8627	-1.98549e-06
10002.2	7.89144	1.73717	8.08038	-12.4147	398.488	0.448474	-0.00775525	9.1597	0.423352	1	38	0.00502525	0.000621908	0	-1.92714e-05	2.29522	1.56229	46.0326	4.72465e-05	5.57263e-05	3.97868e-05	4.52603e-05	2.83051e-05	3.97254e-05	0.256562	0.172509	6.09373	1.85556e-07	5.00933e-07	5.84375e-07	6.97361e-07	4.3607e-07	9.35333e-07	0.120863	0.0266059	0.123756	12.4147	423.352	1923.16	1969.21	-77.5853	0.0000000E+000	0.0000000E+000	0.0000000E+000	77.5853	0.0000000E+000	0.0000000E+000	0.0000000E+000	-77.5853	0.0000000E+000	0.0000000E+000	0.0000000E+000	-12.4147	0.0000000E+000	0.0000000E+000	0.0000000E+000	12.4147	4.5427	77.5853	-2.86724e-06
6307.74	8.16856	2.48061	8.53691	-16.8924	400.237	0.448326	-0.00814812	10.1716	0.858823	1	38	0.00506524	0.000593334	0	-2.35677e-05	2.09766	1.9488	45.0921	2.80773e-05	7.10454e-05	4.56328e-05	3.44463e-05	3.1961e-05	3.05524e-05	0.357539	0.314323	6.45315	4.16636e-07	1.40843e-06	9.13509e-08	7.50059e-07	7.09282e-07	8.2274e-07	0.112084	0.0340375	0.117138	16.8924	858.823	2828.08	2955.6	-73.1076	0.0000000E+000	0.0000000E+000	0.0000000E+000	73.1076	0.0000000E+000	0.0000000E+000	0.0000000E+000	-73.1076	0.0000000E+000	0.0000000E+000	0.0000000E+000	-16.8924	0.0000000E+000	0.0000000E+000	0.0000000E+000	16.8924	3.29297	73.1076	-1.67852e-06
3981.28	8.28507	3.74549	9.09236	-24.3267	401.959	0.448344	-0.00724881	10.6731	1.81114	1	38	0.00517971	0.000569677	0	-2.74891e-05	2.83781	1.24755	44.9316	2.39149e-05	2.8749e-05	4.03125e-05	7.99969e-05	7.28576e-05	4.6524e-05	0.420226	0.228602	6.71098	9.01764e-07	6.32463e-07	8.99345e-07	1.21366e-06	6.71562e-07	1.14365e-06	0.100217	0.045306	0.109982	24.3267	1811.15	4006.27	4396.64	-65.6733	0.0000000E+000	0.0000000E+000	0.0000000E+000	65.6733	0.0000000E+000	0.0000000E+000	0.0000000E+000	-65.6733	0.0000000E+000	0.0000000E+000	0.0000000E+000	-24.3267	0.0000000E+000	0.0000000E+000	0.0000000E+000	24.3267	2.21201	65.6733	-1.86112e-06
2512.41	8.60993	5.5102	10.2222	-32.6185	403.445	0.448336	-0.00713151	11.4964	3.34048	1	38	0.0053681	0.000525141	0	-3.01118e-05	2.48013	1.34128	43.928	2.72016e-05	3.65993e-05	5.28148e-05	7.00381e-05	3.38086e-05	5.53463e-05	0.421299	0.181658	7.4992	1.27697e-06	6.29596e-07	2.30705e-07	9.20056e-07	8.77788e-07	5.645e-07	0.082397	0.0527326	0.0978264	32.6185	3340.48	5219.65	6197.06	-57.3815	0.0000000E+000	0.0000000E+000	0.0000000E+000	57.3815	0.0000000E+000	0.0000000E+000	0.0000000E+000	-57.3815	0.0000000E+000	0.0000000E+000	0.0000000E+000	-32.6185	0.0000000E+000	0.0000000E+000	0.0000000E+000	32.6185	1.56254	57.3815	-1.35766e-06
1584.49	8.86432	8.42248	12.2276	-43.5359	405.154	0.448363	-0.00629923	11.9259	5.65831	1	38	0.00483276	0.000395233	0	-3.293e-05	2.54904	1.20651	47.9673	6.08967e-05	2.71498e-05	4.28669e-05	7.28693e-05	1.81409e-05	5.25859e-05	0.654795	0.277243	9.67215	6.175e-07	1.15544e-06	9.19713e-07	5.0318e-07	1.42931e-06	1.10487e-06	0.0592874	0.0563322	0.0817821	43.5359	5658.31	5955.15	8214.64	-46.4641	0.0000000E+000	0.0000000E+000	0.0000000E+000	46.4641	0.0000000E+000	0.0000000E+000	0.0000000E+000	-46.4641	0.0000000E+000	0.0000000E+000	0.0000000E+000	-43.5359	0.0000000E+000	0.0000000E+000	0.0000000E+000	43.5359	1.05246	46.4641	-1.10846e-06
999.682	9.38911	12.79	15.8663	-53.7177	406.641	0.448345	-0.0058263	12.4477	8.08868	1	38	0.00472625	0.00029788	0	-3.52943e-05	2.13832	1.08787	48.0997	4.78011e-05	5.40753e-05	4.10149e-05	1.74727e-05	2.87335e-05	3.62805e-05	0.706683	0.449029	13.1727	7.39662e-07	1.15775e-06	7.69409e-07	5.31576e-07	9.86e-07	5.46197e-07	0.0372969	0.0508065	0.0630267	53.7177	8088.68	5937.88	10034.2	-36.2823	0.0000000E+000	0.0000000E+000	0.0000000E+000	36.2823	0.0000000E+000	0.0000000E+000	0.0000000E+000	-36.2823	0.0000000E+000	0.0000000E+000	0.0000000E+000	-53.7177	0.0000000E+000	0.0000000E+000	0.0000000E+000	53.7177	0.734097	36.2823	-1.05446e-06
631.01	10.2145	19.5047	22.0175	-62.3592	408.128	0.448456	-0.00126456	12.9314	10.1482	1	38	0.00466767	0.000211999	0	-3.72422e-05	2.10294	1.26782	50.6576	5.50729e-05	3.77277e-05	4.94125e-05	2.32364e-05	5.36524e-06	3.32605e-05	0.887674	0.437324	17.7416	6.25023e-07	1.24362e-06	5.62629e-07	7.11449e-07	3.80431e-07	5.22992e-07	0.0210709	0.0402351	0.0454185	62.3592	10148.2	5314.55	11455.6	-27.6408	0.0000000E+000	0.0000000E+000	0.0000000E+000	27.6408	0.0000000E+000	0.0000000E+000	0.0000000E+000	-27.6408	0.0000000E+000	0.0000000E+000	0.0000000E+000	-62.3592	0.0000000E+000	0.0000000E+000	0.0000000E+000	62.3592	0.523694	27.6408	-6.24756e-07
398.089	11.3746	29.9912	32.0757	-69.23	409.871	0.448346	-0.000594763	13.3305	11.6542	1	39	0.00480609	0.000149836	0	-3.83355e-05	2.56548	0.93065	47.6598	6.96678e-05	4.58785e-05	4.49487e-05	3.67361e-05	4.59564e-05	3.61414e-05	0.942322	0.446669	12.959	4.61572e-07	8.04778e-07	5.13882e-07	7.16907e-07	2.55683e-07	1.45214e-07	0.0110556	0.0291502	0.0311762	69.23	11654.2	4420.01	12464.2	-20.77	0.0000000E+000	0.0000000E+000	0.0000000E+000	20.77	0.0000000E+000	0.0000000E+000	0.0000000E+000	-20.77	0.0000000E+000	0.0000000E+000	0.0000000E+000	-69.23	0.0000000E+000	0.0000000E+000	0.0000000E+000	69.23	0.379265	20.77	-4.92875e-07
251.206	12.838	46.7592	48.4895	-74.6474	411.356	0.44839	-0.000216601	13.5495	12.5997	1	39	0.00473265	9.76014e-05	0	-3.85642e-05	1.64506	1.0904	47.0065	6.27117e-05	2.93329e-05	1.86261e-05	2.18273e-05	1.09982e-05	5.44977e-06	1.02476	0.63895	19.7169	6.77284e-07	1.40656e-07	2.99974e-07	4.86623e-07	2.22597e-07	2.04703e-07	0.00546012	0.0198871	0.020623	74.6474	12599.7	3459.34	13066	-15.3526	0.0000000E+000	0.0000000E+000	0.0000000E+000	15.3526	0.0000000E+000	0.0000000E+000	0.0000000E+000	-15.3526	0.0000000E+000	0.0000000E+000	0.0000000E+000	-74.6474	0.0000000E+000	0.0000000E+000	0.0000000E+000	74.6474	0.274556	15.3526	-4.00777e-08
158.529	16.1872	71.3259	73.1397	-77.2135	412.849	0.448387	-0.00017243	14.0755	13.3861	1	39	0.00466059	6.37217e-05	0	-3.87799e-05	2.26145	2.13425	49.121	6.95086e-05	1.67614e-05	2.0042e-05	5.49133e-05	3.00721e-05	3.08283e-05	1.9295	0.923725	29.3744	5.4614e-07	3.591e-07	1.53762e-07	6.41143e-07	5.75115e-07	3.13484e-07	0.00302598	0.0133334	0.0136725	77.2135	13386.1	3037.93	13726.5	-12.7865	0.0000000E+000	0.0000000E+000	0.0000000E+000	12.7865	0.0000000E+000	0.0000000E+000	0.0000000E+000	-12.7865	0.0000000E+000	0.0000000E+000	0.0000000E+000	-77.2135	0.0000000E+000	0.0000000E+000	0.0000000E+000	77.2135	0.226947	12.7865	-2.99797e-08
99.9682	20.7992	110.964	112.897	-79.3837	414.321	0.448417	-0.000454422	14.3474	13.8605	1	39	0.00465335	4.12177e-05	0	-3.88245e-05	1.99031	1.5824	47.4647	1.53874e-05	2.73303e-05	4.09239e-05	4.66192e-05	3.61877e-05	4.59731e-05	2.21697	1.77206	46.7887	4.29885e-07	5.71132e-07	3.42726e-07	2.80548e-07	1.74126e-07	1.68435e-07	0.00163186	0.00870602	0.00885764	79.3837	13860.5	2598.01	14101.9	-10.6163	0.0000000E+000	0.0000000E+000	0.0000000E+000	10.6163	0.0000000E+000	0.0000000E+000	0.0000000E+000	-10.6163	0.0000000E+000	0.0000000E+000	0.0000000E+000	-79.3837	0.0000000E+000	0.0000000E+000	0.0000000E+000	79.3837	0.18744	10.6163	-3.29525e-08