File: Python/Data/GoldElectrode/240313/240313-CVEIS_Activation-0p5H2SO4-Ag_AgCl_BLF8-Au_RDE-80cycles_02_PEIS_C15.mpt
EC-Lab ASCII FILE
Nb header lines : 66

Potentio Electrochemical Impedance Spectroscopy

Run on channel : 15 (SN 19485)
User :
Electrode connection : standard
Potential control : Ewe
Ewe ctrl range : min = -2.50 V, max = 2.50 V
Ewe,I filtering : 50 kHz
Safety Limits :
	Do not start on E overload
Channel : Floating
Acquisition started on : 03/13/2024 15:25:11.595
Loaded Setting File :  C:\Data\mathias\GoldElectrode\240308-CVEIS_Activation-0p5H2SO4-Ag_AgCl_BLF8-Au_RDE-80cycles-C15.mps
Saved on :
	File : 240313-CVEIS_Activation-0p5H2SO4-Ag_AgCl_BLF8-Au_RDE-80cycles_02_PEIS_C15.mpr
	Directory : C:\Data\mathias\GoldElectrode\
	Host : 192.168.0.1
Device : VMP-300 (SN 0826)
Address : USB
EC-Lab for windows v11.52 (software)
Internet server v11.52 (firmware)
Command interpretor v11.52 (firmware)
Electrode material :
Initial state :
Electrolyte :
Comments :
Cable : special
Electrode surface area : 0.001 cm²
Characteristic mass : 0.001 g
Equivalent Weight : 0.000 g/eq.
Density : 0.000 g/cm3
Volume (V) : 0.001 cm³
Record EIS quality indicators
Cycle Definition : Charge/Discharge alternance
Mode                Single sine
E (V)               0.0000
vs.                 Eoc
tE (h:m:s)          0:00:0.0000
record              0
dI                  0.000
unit dI             mA
dt (s)              0.000
fi                  100.000
unit fi             kHz
ff                  100.000
unit ff             Hz
Nd                  10
Points              per decade
spacing             Logarithmic
Va (mV)             5.0
pw                  0.10
Na                  2
corr                0
E range min (V)     -2.500
E range max (V)     2.500
I Range             Auto
Bandwidth           8
nc cycles           0
goto Ns'            0
nr cycles           0
inc. cycle          0

freq/Hz	Re(Z)/Ohm	-Im(Z)/Ohm	|Z|/Ohm	Phase(Z)/deg	time/s	<Ewe>/V	<I>/mA	Cs/µF	Cp/µF	cycle number	I Range	|Ewe|/V	|I|/A	Ns	(Q-Qo)/mA.h	THD Ewe/%	NSD Ewe/%	NSR Ewe/%	|Ewe h2|/V	|Ewe h3|/V	|Ewe h4|/V	|Ewe h5|/V	|Ewe h6|/V	|Ewe h7|/V	THD I/%	NSD I/%	NSR I/%	|I h2|/A	|I h3|/A	|I h4|/A	|I h5|/A	|I h6|/A	|I h7|/A	Re(Y)/Ohm-1	Im(Y)/Ohm-1	|Y|/Ohm-1	Phase(Y)/deg	Re(C)/nF	Im(C)/nF	|C|/nF	Phase(C)/deg	Re(M)	Im(M)	|M|	Phase(M)/deg	Re(Permittivity)	Im(Permittivity)	|Permittivity|	Phase(Permittivity)/deg	Re(Resistivity)/Ohm.cm	Im(Resistivity)/Ohm.cm	|Resistivity|/Ohm.cm	Phase(Resistivity)/deg	Re(Conductivity)/mS/cm	Im(Conductivity)/mS/cm	|Conductivity|/mS/cm	Phase(Conductivity)/deg	Tan(Delta)	Loss Angle(Delta)/deg	dq/mA.h
100004	7.64682	1.29382	7.75551	-9.60336	21.2149	0.448512	-0.0157244	1.23007	0.0342341	1	38	0.00488331	0.000629657	0	-4.0811e-06	2.60578	1.35035	47.696	5.88216e-05	5.13077e-05	6.25192e-05	3.67367e-05	3.65355e-05	2.38674e-05	0.275123	0.195426	5.97619	6.71481e-07	7.50139e-07	6.73759e-07	7.03545e-07	6.27512e-07	3.82427e-07	0.127134	0.0215107	0.128941	9.60336	34.2341	202.332	205.208	-80.3966	0.0000000E+000	0.0000000E+000	0.0000000E+000	80.3966	0.0000000E+000	0.0000000E+000	0.0000000E+000	-80.3966	0.0000000E+000	0.0000000E+000	0.0000000E+000	-9.60336	0.0000000E+000	0.0000000E+000	0.0000000E+000	9.60336	5.91025	80.3966	-4.0811e-06
63093.8	7.82342	1.31423	7.93304	-9.53586	22.8429	0.448512	-0.00737914	1.91939	0.0526774	1	38	0.00517153	0.000651898	0	-5.71589e-06	2.26041	1.83331	46.2795	3.60696e-05	3.91611e-05	4.87245e-05	5.04677e-05	3.5704e-05	5.49802e-05	0.297604	0.179372	5.80732	6.62042e-07	6.1417e-07	1.08288e-06	6.57196e-07	5.18614e-07	7.38871e-07	0.124313	0.0208829	0.126055	9.53586	52.6774	313.582	317.976	-80.4641	0.0000000E+000	0.0000000E+000	0.0000000E+000	80.4641	0.0000000E+000	0.0000000E+000	0.0000000E+000	-80.4641	0.0000000E+000	0.0000000E+000	0.0000000E+000	-9.53586	0.0000000E+000	0.0000000E+000	0.0000000E+000	9.53586	5.95287	80.4641	-4.06406e-07
39814.1	7.94655	1.82049	8.15241	-12.9033	24.4709	0.448475	-0.00726742	2.19582	0.109496	1	38	0.00515946	0.000632875	0	-9.43233e-06	2.16087	1.06464	45.8879	9.93988e-06	6.97089e-05	3.09484e-05	4.56731e-05	4.3355e-05	3.26761e-05	0.269881	0.148872	5.9121	2.97081e-07	8.27267e-07	1.03751e-06	4.37653e-07	8.285e-07	2.58117e-07	0.119566	0.0273915	0.122663	12.9033	109.496	477.958	490.34	-77.0967	0.0000000E+000	0.0000000E+000	0.0000000E+000	77.0967	0.0000000E+000	0.0000000E+000	0.0000000E+000	-77.0967	0.0000000E+000	0.0000000E+000	0.0000000E+000	-12.9033	0.0000000E+000	0.0000000E+000	0.0000000E+000	12.9033	4.36507	77.0967	-1.39407e-06
25116.9	8.28945	2.2683	8.5942	-15.3036	26.0989	0.448451	-0.00601993	2.79353	0.1946	1	38	0.00512241	0.000596032	0	-1.31831e-05	2.53517	2.56002	47.3336	7.89321e-05	4.08363e-05	3.66445e-05	3.82771e-05	1.35053e-05	6.1155e-05	0.296548	0.338349	6.47939	4.69009e-07	8.09829e-07	1.31641e-07	1.05777e-06	7.06356e-07	5.08529e-07	0.112232	0.0307107	0.116358	15.3036	194.6	711.163	737.308	-74.6964	0.0000000E+000	0.0000000E+000	0.0000000E+000	74.6964	0.0000000E+000	0.0000000E+000	0.0000000E+000	-74.6964	0.0000000E+000	0.0000000E+000	0.0000000E+000	-15.3036	0.0000000E+000	0.0000000E+000	0.0000000E+000	15.3036	3.65448	74.6964	-2.1518e-06
15847.7	8.53754	3.3777	9.18142	-21.5852	27.7269	0.448466	-0.00602738	2.97327	0.402397	1	38	0.00511651	0.000557267	0	-1.52959e-05	2.80527	0.925222	46.2809	5.8399e-05	1.80514e-05	4.5891e-05	3.70939e-05	6.11764e-05	8.98974e-05	0.475733	0.203287	6.74908	4.14289e-07	5.66269e-07	8.92395e-07	2.82676e-07	1.06977e-06	1.98263e-06	0.101278	0.0400683	0.108916	21.5852	402.397	1017.11	1093.82	-68.4148	0.0000000E+000	0.0000000E+000	0.0000000E+000	68.4148	0.0000000E+000	0.0000000E+000	0.0000000E+000	-68.4148	0.0000000E+000	0.0000000E+000	0.0000000E+000	-21.5852	0.0000000E+000	0.0000000E+000	0.0000000E+000	21.5852	2.52762	68.4148	-1.23462e-06
10002.2	8.88764	4.78525	10.094	-28.2987	29.3559	0.448509	-0.0058747	3.32521	0.747312	1	38	0.00508331	0.000503598	0	-1.74185e-05	2.19727	1.25039	45.6861	4.58235e-05	4.33403e-05	2.16048e-05	5.43595e-05	4.81304e-05	3.8028e-05	0.414252	0.25306	7.74814	8.12393e-07	1.26976e-06	4.82403e-07	6.06306e-07	8.53403e-07	7.4577e-07	0.0872289	0.0469654	0.0990688	28.2987	747.312	1387.98	1576.38	-61.7013	0.0000000E+000	0.0000000E+000	0.0000000E+000	61.7013	0.0000000E+000	0.0000000E+000	0.0000000E+000	-61.7013	0.0000000E+000	0.0000000E+000	0.0000000E+000	-28.2987	0.0000000E+000	0.0000000E+000	0.0000000E+000	28.2987	1.8573	61.7013	-8.52254e-07
6307.74	9.47737	6.96634	11.7622	-36.3178	30.92	0.448395	-0.00706075	3.62195	1.27049	1	38	0.00551157	0.000468582	0	-2.01223e-05	3.36053	1.21797	40.4485	3.23281e-05	0.000156421	3.98783e-05	3.72493e-05	6.56758e-05	1.17701e-05	0.789198	0.20075	7.66546	1.50624e-06	2.86121e-06	7.58024e-07	1.32136e-06	6.75655e-07	2.74068e-07	0.0685026	0.0503529	0.0850178	36.3178	1270.49	1728.44	2145.14	-53.6822	0.0000000E+000	0.0000000E+000	0.0000000E+000	53.6822	0.0000000E+000	0.0000000E+000	0.0000000E+000	-53.6822	0.0000000E+000	0.0000000E+000	0.0000000E+000	-36.3178	0.0000000E+000	0.0000000E+000	0.0000000E+000	36.3178	1.36045	53.6822	-1.55943e-06
3981.28	10.4117	10.4315	14.7383	-45.0544	32.6411	0.448363	-0.0054055	3.83224	1.91976	1	38	0.00503087	0.000341346	0	-2.33326e-05	1.89394	1.15201	45.0006	1.83182e-05	4.23176e-05	4.65097e-05	3.37756e-05	3.82114e-05	3.11688e-05	0.789059	0.324894	11.1631	1.44417e-06	9.19648e-07	2.74956e-07	1.19435e-06	1.4131e-06	8.07364e-07	0.0479318	0.0480229	0.0678503	45.0544	1919.76	1916.11	2712.37	-44.9456	0.0000000E+000	0.0000000E+000	0.0000000E+000	44.9456	0.0000000E+000	0.0000000E+000	0.0000000E+000	-44.9456	0.0000000E+000	0.0000000E+000	0.0000000E+000	-45.0544	0.0000000E+000	0.0000000E+000	0.0000000E+000	45.0544	0.998102	44.9456	-1.3262e-06
2512.41	11.7861	15.4012	19.3936	-52.5744	34.127	0.44837	-0.00449874	4.11314	2.59401	1	38	0.00489477	0.000252392	0	-2.54068e-05	2.2674	1.45404	48.3427	3.88326e-05	4.51863e-05	3.15023e-05	4.75395e-05	6.03829e-05	2.62677e-05	0.923322	0.577268	14.8446	1.28101e-06	1.14344e-06	4.92798e-07	7.678e-07	6.62681e-07	1.0373e-06	0.0313368	0.0409488	0.0515635	52.5744	2594.01	1985.11	3266.42	-37.4256	0.0000000E+000	0.0000000E+000	0.0000000E+000	37.4256	0.0000000E+000	0.0000000E+000	0.0000000E+000	-37.4256	0.0000000E+000	0.0000000E+000	0.0000000E+000	-52.5744	0.0000000E+000	0.0000000E+000	0.0000000E+000	52.5744	0.765267	37.4256	-8.00788e-07
1584.49	13.6293	22.7535	26.5231	-59.0785	35.6142	0.448392	-0.00504615	4.41451	3.24883	1	38	0.00474735	0.000178989	0	-2.74677e-05	2.67074	0.98577	49.5169	5.21804e-05	5.6243e-05	7.05809e-05	4.52389e-05	2.08684e-05	3.86249e-05	1.69936	0.81414	21.289	1.45303e-06	1.44452e-06	8.87522e-07	1.14943e-06	9.04869e-07	1.14496e-06	0.0193742	0.0323443	0.0377029	59.0785	3248.84	1946.04	3787.09	-30.9215	0.0000000E+000	0.0000000E+000	0.0000000E+000	30.9215	0.0000000E+000	0.0000000E+000	0.0000000E+000	-30.9215	0.0000000E+000	0.0000000E+000	0.0000000E+000	-59.0785	0.0000000E+000	0.0000000E+000	0.0000000E+000	59.0785	0.598997	30.9215	-9.13639e-07
999.682	17.0344	33.8251	37.8723	-63.2701	37.3542	0.448326	-0.000544069	4.70673	3.75452	1	39	0.00511131	0.000134962	0	-2.87607e-05	2.32872	0.980409	42.9257	3.47203e-05	3.09769e-05	1.57537e-05	6.61272e-05	3.28569e-05	7.16353e-05	0.72042	0.290402	13.683	2.00264e-07	2.4358e-07	2.77949e-07	5.85483e-07	3.42795e-07	4.77145e-07	0.0118764	0.0235829	0.0264045	63.2701	3754.52	1890.78	4203.75	-26.7299	0.0000000E+000	0.0000000E+000	0.0000000E+000	26.7299	0.0000000E+000	0.0000000E+000	0.0000000E+000	-26.7299	0.0000000E+000	0.0000000E+000	0.0000000E+000	-63.2701	0.0000000E+000	0.0000000E+000	0.0000000E+000	63.2701	0.503602	26.7299	-5.4949e-07
631.01	21.2943	50.173	54.5049	-67.0028	38.8398	0.448373	-0.000503439	5.02706	4.25975	1	39	0.00485503	8.90751e-05	0	-2.88006e-05	3.87392	0.927998	47.7766	3.18373e-05	0.00015562	4.7349e-05	3.75942e-05	5.06777e-05	4.22738e-05	1.55207	0.491684	21.4379	2.83017e-07	9.09471e-07	2.81529e-07	3.66987e-07	6.12477e-07	5.11882e-07	0.00716791	0.0168888	0.018347	67.0028	4259.75	1807.91	4627.53	-22.9972	0.0000000E+000	0.0000000E+000	0.0000000E+000	22.9972	0.0000000E+000	0.0000000E+000	0.0000000E+000	-22.9972	0.0000000E+000	0.0000000E+000	0.0000000E+000	-67.0028	0.0000000E+000	0.0000000E+000	0.0000000E+000	67.0028	0.424417	22.9972	-1.28446e-09
398.089	29.2662	72.3381	78.034	-67.973	40.3281	0.448361	-8.14771e-05	5.52679	4.7494	1	39	0.00469078	6.0112e-05	0	-2.88746e-05	1.77697	1.75114	48.3088	3.37202e-05	3.33355e-05	3.57823e-05	1.76096e-05	4.30277e-05	3.28765e-05	1.51182	0.856448	31.2159	2.12221e-07	5.06891e-07	2.13976e-07	4.36132e-07	2.57752e-07	3.52383e-07	0.00480616	0.0118795	0.0128149	67.973	4749.4	1921.49	5123.37	-22.027	0.0000000E+000	0.0000000E+000	0.0000000E+000	22.027	0.0000000E+000	0.0000000E+000	0.0000000E+000	-22.027	0.0000000E+000	0.0000000E+000	0.0000000E+000	-67.973	0.0000000E+000	0.0000000E+000	0.0000000E+000	67.973	0.404575	22.027	-2.26794e-08
251.206	40.4313	106.379	113.803	-69.1898	41.8132	0.448372	-0.000299541	5.95571	5.20399	1	39	0.00467288	4.1061e-05	0	-2.89086e-05	2.82805	1.26848	45.9664	3.14474e-05	3.13071e-05	2.78616e-05	2.74609e-05	9.34172e-05	6.26324e-05	2.42423	2.13216	45.8232	1.56629e-07	4.20992e-07	2.39184e-07	5.82114e-07	4.47635e-07	3.47475e-07	0.00312182	0.00821383	0.00878708	69.1898	5203.99	1977.87	5567.17	-20.8102	0.0000000E+000	0.0000000E+000	0.0000000E+000	20.8102	0.0000000E+000	0.0000000E+000	0.0000000E+000	-20.8102	0.0000000E+000	0.0000000E+000	0.0000000E+000	-69.1898	0.0000000E+000	0.0000000E+000	0.0000000E+000	69.1898	0.380068	20.8102	-4.10309e-08
158.529	54.7935	154.174	163.621	-70.4348	43.307	0.448354	2.02851e-05	6.51179	5.78153	1	39	0.00464301	2.83766e-05	0	-2.8957e-05	1.92949	1.60746	49.3351	2.57351e-05	5.96871e-05	2.78238e-05	3.92369e-05	2.05985e-05	2.26422e-05	2.90006	2.68618	67.6356	2.98766e-07	3.31774e-07	4.38387e-07	3.35482e-07	2.32656e-07	1.56256e-07	0.00204667	0.00575879	0.00611167	70.4348	5781.53	2054.76	6135.8	-19.5652	0.0000000E+000	0.0000000E+000	0.0000000E+000	19.5652	0.0000000E+000	0.0000000E+000	0.0000000E+000	-19.5652	0.0000000E+000	0.0000000E+000	0.0000000E+000	-70.4348	0.0000000E+000	0.0000000E+000	0.0000000E+000	70.4348	0.3554	19.5652	-4.94361e-08
99.9682	79.9621	220.688	234.727	-70.083	45.0322	0.448416	-3.28975e-05	7.21407	6.37689	1	40	0.0046884	1.99738e-05	0	-2.90325e-05	2.76425	1.12199	70.7185	3.26065e-05	7.92173e-05	5.24431e-05	3.46316e-05	4.32091e-05	4.06389e-05	0.879202	0.403511	18.9226	6.12401e-08	4.83878e-08	4.23026e-08	8.9363e-08	8.29929e-08	7.19566e-08	0.0014513	0.00400544	0.00426026	70.083	6376.89	2310.55	6782.57	-19.917	0.0000000E+000	0.0000000E+000	0.0000000E+000	19.917	0.0000000E+000	0.0000000E+000	0.0000000E+000	-19.917	0.0000000E+000	0.0000000E+000	0.0000000E+000	-70.083	0.0000000E+000	0.0000000E+000	0.0000000E+000	70.083	0.362331	19.917	-3.45264e-08