File: Python/Data/GoldElectrode/240313/240313-CVEIS_Activation-0p5H2SO4-Ag_AgCl_BLF8-Au_RDE-80cycles_08_PEIS_C15.mpt
EC-Lab ASCII FILE
Nb header lines : 66

Potentio Electrochemical Impedance Spectroscopy

Run on channel : 15 (SN 19485)
User :
Electrode connection : standard
Potential control : Ewe
Ewe ctrl range : min = -2.50 V, max = 2.50 V
Ewe,I filtering : 50 kHz
Safety Limits :
	Do not start on E overload
Channel : Floating
Acquisition started on : 03/13/2024 15:25:11.595
Loaded Setting File :  C:\Data\mathias\GoldElectrode\240308-CVEIS_Activation-0p5H2SO4-Ag_AgCl_BLF8-Au_RDE-80cycles-C15.mps
Saved on :
	File : 240313-CVEIS_Activation-0p5H2SO4-Ag_AgCl_BLF8-Au_RDE-80cycles_08_PEIS_C15.mpr
	Directory : C:\Data\mathias\GoldElectrode\
	Host : 192.168.0.1
Device : VMP-300 (SN 0826)
Address : USB
EC-Lab for windows v11.52 (software)
Internet server v11.52 (firmware)
Command interpretor v11.52 (firmware)
Electrode material :
Initial state :
Electrolyte :
Comments :
Cable : special
Electrode surface area : 0.001 cm²
Characteristic mass : 0.001 g
Equivalent Weight : 0.000 g/eq.
Density : 0.000 g/cm3
Volume (V) : 0.001 cm³
Record EIS quality indicators
Cycle Definition : Charge/Discharge alternance
Mode                Single sine
E (V)               0.0000
vs.                 Eoc
tE (h:m:s)          0:00:0.0000
record              0
dI                  0.000
unit dI             mA
dt (s)              0.000
fi                  100.000
unit fi             kHz
ff                  100.000
unit ff             Hz
Nd                  10
Points              per decade
spacing             Logarithmic
Va (mV)             5.0
pw                  0.10
Na                  2
corr                0
E range min (V)     -2.500
E range max (V)     2.500
I Range             Auto
Bandwidth           8
nc cycles           0
goto Ns'            0
nr cycles           0
inc. cycle          0

freq/Hz	Re(Z)/Ohm	-Im(Z)/Ohm	|Z|/Ohm	Phase(Z)/deg	time/s	<Ewe>/V	<I>/mA	Cs/µF	Cp/µF	cycle number	I Range	|Ewe|/V	|I|/A	Ns	(Q-Qo)/mA.h	THD Ewe/%	NSD Ewe/%	NSR Ewe/%	|Ewe h2|/V	|Ewe h3|/V	|Ewe h4|/V	|Ewe h5|/V	|Ewe h6|/V	|Ewe h7|/V	THD I/%	NSD I/%	NSR I/%	|I h2|/A	|I h3|/A	|I h4|/A	|I h5|/A	|I h6|/A	|I h7|/A	Re(Y)/Ohm-1	Im(Y)/Ohm-1	|Y|/Ohm-1	Phase(Y)/deg	Re(C)/nF	Im(C)/nF	|C|/nF	Phase(C)/deg	Re(M)	Im(M)	|M|	Phase(M)/deg	Re(Permittivity)	Im(Permittivity)	|Permittivity|	Phase(Permittivity)/deg	Re(Resistivity)/Ohm.cm	Im(Resistivity)/Ohm.cm	|Resistivity|/Ohm.cm	Phase(Resistivity)/deg	Re(Conductivity)/mS/cm	Im(Conductivity)/mS/cm	|Conductivity|/mS/cm	Phase(Conductivity)/deg	Tan(Delta)	Loss Angle(Delta)/deg	dq/mA.h
100004	7.42831	0.649007	7.4566	-4.99322	1163.72	0.448435	-0.0190777	2.45219	0.0185768	1	38	0.00484518	0.000649783	0	-5.7318e-06	2.61235	1.34419	51.6468	5.3975e-05	5.11574e-05	5.72473e-05	1.81133e-05	3.81121e-05	6.03053e-05	0.321008	0.19264	5.92382	7.49394e-07	8.68602e-07	7.86504e-07	8.2892e-07	5.97795e-07	6.39997e-07	0.1336	0.0116726	0.134109	4.99322	18.5768	212.624	213.434	-85.0068	0.0000000E+000	0.0000000E+000	0.0000000E+000	85.0068	0.0000000E+000	0.0000000E+000	0.0000000E+000	-85.0068	0.0000000E+000	0.0000000E+000	0.0000000E+000	-4.99322	0.0000000E+000	0.0000000E+000	0.0000000E+000	4.99322	11.4457	85.0068	-5.7318e-06
63093.8	7.49687	0.575299	7.51891	-4.3882	1165.34	0.448458	-0.0102987	4.3847	0.0256695	1	38	0.00514233	0.00068392	0	-1.16125e-05	3.79258	1.80134	46.6317	0.000155295	4.93801e-05	4.98071e-05	3.80275e-05	5.51041e-05	5.81098e-05	0.442531	0.200408	5.62255	2.70745e-06	5.48455e-07	5.73719e-07	8.8559e-07	2.94877e-07	5.08837e-07	0.132608	0.0101762	0.132998	4.3882	25.6695	334.506	335.489	-85.6118	0.0000000E+000	0.0000000E+000	0.0000000E+000	85.6118	0.0000000E+000	0.0000000E+000	0.0000000E+000	-85.6118	0.0000000E+000	0.0000000E+000	0.0000000E+000	-4.3882	0.0000000E+000	0.0000000E+000	0.0000000E+000	4.3882	13.0312	85.6118	-3.04822e-06
39814.1	7.51502	0.534646	7.53401	-4.06937	1166.97	0.448463	-0.00941424	7.47683	0.0376528	1	38	0.00511726	0.000679221	0	-1.73368e-05	1.93706	0.957519	45.0365	3.20266e-05	2.59527e-05	7.28465e-05	2.28247e-05	3.01159e-05	2.46482e-05	0.312679	0.141686	5.67142	8.27598e-07	6.51574e-07	4.50744e-07	1.20381e-06	9.58796e-07	5.17827e-07	0.132397	0.00941919	0.132731	4.06937	37.6528	529.25	530.588	-85.9306	0.0000000E+000	0.0000000E+000	0.0000000E+000	85.9306	0.0000000E+000	0.0000000E+000	0.0000000E+000	-85.9306	0.0000000E+000	0.0000000E+000	0.0000000E+000	-4.06937	0.0000000E+000	0.0000000E+000	0.0000000E+000	4.06937	14.0561	85.9306	-1.83363e-06
25116.9	7.56485	0.78434	7.6054	-5.9194	1168.6	0.448478	-0.00873277	8.07885	0.0859239	1	38	0.0051882	0.000682172	0	-2.00358e-05	2.77354	1.30413	46.4026	6.9878e-05	5.49377e-05	3.69742e-05	5.55357e-05	5.48708e-05	1.93083e-05	0.321956	0.340293	5.54768	7.60249e-07	1.17883e-06	5.67637e-07	1.10271e-06	7.05713e-07	8.20359e-07	0.130784	0.01356	0.131485	5.9194	85.9239	828.724	833.166	-84.0806	0.0000000E+000	0.0000000E+000	0.0000000E+000	84.0806	0.0000000E+000	0.0000000E+000	0.0000000E+000	-84.0806	0.0000000E+000	0.0000000E+000	0.0000000E+000	-5.9194	0.0000000E+000	0.0000000E+000	0.0000000E+000	5.9194	9.64486	84.0806	-1.45554e-06
15847.7	7.61206	0.899156	7.66498	-6.73671	1170.23	0.448502	-0.00785393	11.1691	0.153698	1	38	0.00509854	0.000665173	0	-2.44981e-05	2.73308	0.99544	46.7605	4.62897e-05	4.58151e-05	6.74063e-05	3.56276e-05	4.57637e-05	7.81876e-05	0.317843	0.163223	5.5211	1.17914e-06	8.2109e-07	6.34479e-07	8.8398e-07	3.71262e-07	9.04569e-07	0.129563	0.0153043	0.130464	6.73671	153.698	1301.17	1310.22	-83.2633	0.0000000E+000	0.0000000E+000	0.0000000E+000	83.2633	0.0000000E+000	0.0000000E+000	0.0000000E+000	-83.2633	0.0000000E+000	0.0000000E+000	0.0000000E+000	-6.73671	0.0000000E+000	0.0000000E+000	0.0000000E+000	6.73671	8.46578	83.2633	-2.82433e-06
10002.2	7.70105	1.21211	7.79586	-8.94473	1171.86	0.448447	-0.0082617	13.1275	0.31735	1	38	0.00502445	0.000644503	0	-2.94712e-05	2.6578	1.05326	46.5564	2.53083e-05	3.15317e-05	5.21128e-05	8.96091e-05	5.33024e-05	2.2963e-05	0.226686	0.121811	5.96424	3.37977e-07	4.48731e-07	6.07719e-07	1.01389e-06	5.63383e-07	2.03881e-07	0.126713	0.0199441	0.128273	8.94473	317.35	2016.26	2041.08	-81.0553	0.0000000E+000	0.0000000E+000	0.0000000E+000	81.0553	0.0000000E+000	0.0000000E+000	0.0000000E+000	-81.0553	0.0000000E+000	0.0000000E+000	0.0000000E+000	-8.94473	0.0000000E+000	0.0000000E+000	0.0000000E+000	8.94473	6.35341	81.0553	-2.58516e-06
6307.74	7.80153	1.69921	7.98443	-12.2874	1173.61	0.448353	-0.00772918	14.8491	0.67252	1	38	0.00493254	0.00061777	0	-3.37859e-05	2.62791	1.69289	47.8811	4.77155e-05	5.53979e-05	4.87307e-05	4.47305e-05	5.08047e-05	5.3068e-05	0.350269	0.23334	6.17676	8.86641e-07	9.66896e-07	9.58018e-07	7.47343e-07	7.45338e-07	6.94073e-07	0.122375	0.0266538	0.125244	12.2874	672.52	3087.72	3160.11	-77.7126	0.0000000E+000	0.0000000E+000	0.0000000E+000	77.7126	0.0000000E+000	0.0000000E+000	0.0000000E+000	-77.7126	0.0000000E+000	0.0000000E+000	0.0000000E+000	-12.2874	0.0000000E+000	0.0000000E+000	0.0000000E+000	12.2874	4.59128	77.7126	-1.75323e-06
3981.28	8.0035	2.5933	8.41315	-17.9534	1175.33	0.448379	-0.00792096	15.4151	1.46464	1	38	0.00517988	0.000615689	0	-3.71777e-05	2.67117	1.37909	46.6318	3.75673e-05	2.74266e-05	4.08358e-05	6.91626e-05	7.39259e-05	6.14794e-05	0.289241	0.194361	6.47749	9.97553e-07	2.5767e-07	4.46272e-07	8.83985e-07	7.45547e-07	3.15324e-07	0.113074	0.0366382	0.118862	17.9534	1464.64	4520.22	4751.59	-72.0466	0.0000000E+000	0.0000000E+000	0.0000000E+000	72.0466	0.0000000E+000	0.0000000E+000	0.0000000E+000	-72.0466	0.0000000E+000	0.0000000E+000	0.0000000E+000	-17.9534	0.0000000E+000	0.0000000E+000	0.0000000E+000	17.9534	3.08623	72.0466	-1.28655e-06
2512.41	8.11712	3.84905	8.98347	-25.3698	1176.81	0.448342	-0.00702165	16.458	3.02131	1	38	0.00542748	0.000604163	0	-4.02512e-05	1.84082	1.56065	44.0473	1.65129e-05	3.16594e-05	3.28267e-05	2.07174e-05	4.51537e-05	5.41397e-05	0.337948	0.25333	6.61897	4.07933e-07	8.81424e-07	5.85807e-07	1.23215e-06	7.97519e-07	4.99938e-07	0.10058	0.0476942	0.111316	25.3698	3021.31	6371.52	7051.56	-64.6302	0.0000000E+000	0.0000000E+000	0.0000000E+000	64.6302	0.0000000E+000	0.0000000E+000	0.0000000E+000	-64.6302	0.0000000E+000	0.0000000E+000	0.0000000E+000	-25.3698	0.0000000E+000	0.0000000E+000	0.0000000E+000	25.3698	2.10886	64.6302	-1.95859e-06
1584.49	8.19248	5.8448	10.0637	-35.5053	1178.52	0.448383	-0.0081686	17.1854	5.79672	1	38	0.00495726	0.000492588	0	-4.43077e-05	1.78799	0.630659	50.2607	3.19719e-05	3.30804e-05	2.34412e-05	3.86163e-05	3.36712e-05	3.5732e-05	0.450222	0.319988	8.08254	8.16817e-07	1.13061e-06	8.28656e-07	9.45678e-07	7.19059e-07	6.84426e-07	0.0808907	0.0577102	0.0993668	35.5053	5796.72	8125.1	9980.94	-54.4947	0.0000000E+000	0.0000000E+000	0.0000000E+000	54.4947	0.0000000E+000	0.0000000E+000	0.0000000E+000	-54.4947	0.0000000E+000	0.0000000E+000	0.0000000E+000	-35.5053	0.0000000E+000	0.0000000E+000	0.0000000E+000	35.5053	1.40167	54.4947	-1.8678e-06
999.682	8.29717	9.00928	12.2479	-47.3562	1180.01	0.448404	-0.00698069	17.6713	9.56154	1	38	0.00490574	0.000400539	0	-4.75164e-05	2.59691	0.685355	46.8507	5.08641e-05	4.69218e-05	6.63507e-05	6.28819e-05	3.1274e-05	4.00715e-05	0.476376	0.343731	9.75895	7.30196e-07	1.20899e-06	8.61534e-07	5.44513e-07	5.30701e-07	4.20441e-07	0.0553107	0.0600578	0.0816469	47.3562	9561.54	8805.77	12998.6	-42.6438	0.0000000E+000	0.0000000E+000	0.0000000E+000	42.6438	0.0000000E+000	0.0000000E+000	0.0000000E+000	-42.6438	0.0000000E+000	0.0000000E+000	0.0000000E+000	-47.3562	0.0000000E+000	0.0000000E+000	0.0000000E+000	47.3562	0.920958	42.6438	-1.31496e-06
631.01	8.5481	13.8143	16.2451	-58.2512	1181.5	0.448366	-0.00368135	18.2581	13.2028	1	38	0.00480551	0.000295813	0	-4.99738e-05	2.68633	1.09295	48.8124	4.57909e-05	7.66186e-05	3.26922e-05	1.89573e-05	3.66e-05	7.12402e-05	0.960554	0.324584	12.8802	7.95569e-07	1.99614e-06	8.14976e-07	4.70431e-07	6.86582e-07	1.17406e-06	0.032391	0.0523458	0.061557	58.2512	13202.8	8169.74	15526.1	-31.7488	0.0000000E+000	0.0000000E+000	0.0000000E+000	31.7488	0.0000000E+000	0.0000000E+000	0.0000000E+000	-31.7488	0.0000000E+000	0.0000000E+000	0.0000000E+000	-58.2512	0.0000000E+000	0.0000000E+000	0.0000000E+000	58.2512	0.618789	31.7487	-6.78611e-07
398.089	9.06218	21.6258	23.4478	-67.2641	1182.98	0.44839	-0.00392899	18.4871	15.7257	1	38	0.00480569	0.000204953	0	-5.1444e-05	2.49943	1.60805	50.1955	6.3761e-05	2.12659e-05	3.21273e-05	3.65596e-05	4.99516e-05	6.40552e-05	1.13769	0.582361	18.5448	1.05695e-06	1.14436e-06	8.09226e-07	2.54516e-07	6.62587e-07	1.30281e-06	0.0164828	0.0393341	0.042648	67.2641	15725.7	6589.76	17050.6	-22.7359	0.0000000E+000	0.0000000E+000	0.0000000E+000	22.7359	0.0000000E+000	0.0000000E+000	0.0000000E+000	-22.7359	0.0000000E+000	0.0000000E+000	0.0000000E+000	-67.2641	0.0000000E+000	0.0000000E+000	0.0000000E+000	67.2641	0.419045	22.7359	-7.4637e-07
251.206	10.0137	33.8275	35.2785	-73.51	1184.72	0.448338	-6.84288e-05	18.7292	17.2202	1	39	0.0049093	0.000139158	0	-5.23294e-05	2.56774	1.75973	47.0263	4.52275e-05	2.76049e-05	7.66272e-05	4.09517e-05	4.80411e-05	4.76329e-05	0.893068	0.362461	13.9454	5.54962e-07	2.08653e-07	5.44972e-07	5.8499e-07	3.49613e-07	5.80821e-07	0.00804591	0.02718	0.0283458	73.51	17220.2	5097.6	17958.9	-16.49	0.0000000E+000	0.0000000E+000	0.0000000E+000	16.49	0.0000000E+000	0.0000000E+000	0.0000000E+000	-16.49	0.0000000E+000	0.0000000E+000	0.0000000E+000	-73.51	0.0000000E+000	0.0000000E+000	0.0000000E+000	73.51	0.296024	16.49	-1.92942e-07
158.529	10.7779	52.705	53.7958	-78.4427	1186.21	0.448378	-0.000593646	19.0484	18.2838	1	39	0.00482387	8.96702e-05	0	-5.24797e-05	2.28077	1.10219	45.9745	6.42491e-05	4.43404e-05	9.08921e-06	6.72246e-05	2.60113e-05	1.03285e-05	1.30243	0.737109	21.7393	6.71479e-07	5.20997e-07	2.30165e-07	6.61359e-07	2.03997e-07	1.46492e-07	0.00372424	0.0182119	0.0185888	78.4427	18283.8	3738.95	18662.2	-11.5573	0.0000000E+000	0.0000000E+000	0.0000000E+000	11.5573	0.0000000E+000	0.0000000E+000	0.0000000E+000	-11.5573	0.0000000E+000	0.0000000E+000	0.0000000E+000	-78.4427	0.0000000E+000	0.0000000E+000	0.0000000E+000	78.4427	0.204495	11.5573	2.51647e-08
99.9682	13.4274	81.3726	82.473	-80.6299	1187.69	0.448374	-0.000556185	19.565	19.0464	1	39	0.0047484	5.75752e-05	0	-5.26353e-05	3.16908	1.4993	47.4811	2.8101e-05	7.4933e-05	7.60034e-05	3.1388e-05	8.18113e-05	3.85709e-05	2.04637	0.516067	31.281	3.49129e-07	6.40088e-07	3.38137e-07	6.67529e-07	3.81543e-07	2.80946e-07	0.00197411	0.0119634	0.0121252	80.6299	19046.4	3142.89	19304	-9.37006	0.0000000E+000	0.0000000E+000	0.0000000E+000	9.37006	0.0000000E+000	0.0000000E+000	0.0000000E+000	-9.37006	0.0000000E+000	0.0000000E+000	0.0000000E+000	-80.6299	0.0000000E+000	0.0000000E+000	0.0000000E+000	80.6299	0.165012	9.37006	-4.35842e-08