File: Python/Data/GoldElectrode/240313/240313-CVEIS_PostActivation-Fe2Fe3_5mM-HCl1M-2000RPM-Ag_AgCl_BLF8-Au_RDE_01_CV_C15.mpt
EC-Lab ASCII FILE
Nb header lines : 60

Cyclic Voltammetry

Run on channel : 15 (SN 19485)
User :
Electrode connection : standard
Potential control : Ewe
Ewe ctrl range : min = -1.00 V, max = 1.00 V
Ewe,I filtering : <None>
Safety Limits :
	Do not start on E overload
Channel : Floating
Acquisition started on : 03/13/2024 18:03:19.717
Loaded Setting File :  NONE
Saved on :
	File : 240313-CVEIS_PostActivation-Fe2Fe3_5mM-HCl1M-2000RPM-Ag_AgCl_BLF8-Au_RDE_01_CV_C15.mpr
	Directory : C:\Data\mathias\GoldElectrode\
	Host : 192.168.0.1
Device : VMP-300 (SN 0826)
Address : USB
EC-Lab for windows v11.52 (software)
Internet server v11.52 (firmware)
Command interpretor v11.52 (firmware)
Electrode material :
Initial state :
Electrolyte :
Comments :
Cable : special
Electrode surface area : 0.001 cm²
Characteristic mass : 0.001 g
Equivalent Weight : 0.000 g/eq.
Density : 0.000 g/cm3
Volume (V) : 0.001 cm³
Record EIS quality indicators
Cycle Definition : Charge/Discharge alternance
Ei (V)              0.000
vs.                 Eoc
dE/dt               20.000
dE/dt unit          mV/s
E1 (V)              0.700
vs.                 Ref
Step percent        50
N                   10
E range min (V)     -1.000
E range max (V)     1.000
I Range             Auto
I Range min         Unset
I Range max         Unset
I Range init        Unset
Bandwidth           8
E2 (V)              0.000
vs.                 Ref
nc cycles           1
Reverse Scan        1
Ef (V)              0.000
vs.                 Eoc

mode	ox/red	error	control changes	counter inc.	time/s	control/V	Ewe/V	<I>/mA	cycle number	(Q-Qo)/C	I Range	step time/s	P/W
2	1	0	1	0	0.000000000000000E+000	0.441588	0.440705	0.00675576	1	0.0000000E+000	42	0.000000000000000E+000	2.9773e-06
2	1	0	1	0	1.1682	0.464951	0.464638	0.0851132	1	5.37034e-05	41	1.1544	3.95469e-05
2	1	0	1	0	2.3477	0.48854	0.488234	0.16225	1	0.000200375	40	2.3339	7.92158e-05
2	1	0	1	0	3.4972	0.511531	0.511072	0.231619	1	0.000428002	40	3.4834	0.000118374
2	1	0	1	0	4.6466	0.534518	0.534185	0.293602	1	0.000731114	40	4.6328	0.000156838
2	1	0	1	0	5.796	0.557507	0.557114	0.348985	1	0.00110132	40	5.7822	0.000194425
2	1	0	1	0	6.9455	0.580497	0.580041	0.399757	1	0.00153221	40	6.9317	0.000231875
2	1	0	1	0	8.095	0.603486	0.60321	0.445344	1	0.00201839	40	8.0812	0.000268636
2	1	0	1	0	9.2444	0.626475	0.62602	0.488278	1	0.00255576	40	9.2306	0.000305672
2	1	0	1	0	10.3939	0.649464	0.649246	0.528389	1	0.00314088	40	10.3801	0.000343054
2	1	0	1	0	11.5433	0.672453	0.672204	0.569583	1	0.00377223	40	11.5295	0.000382876
2	1	0	1	0	12.6928	0.695442	0.695356	0.605339	1	0.00444696	40	12.679	0.000420926
2	1	0	1	0	13.8104	0.682248	0.682026	0.607184	1	0.00512838	40	13.7966	0.000414115
2	1	0	1	0	14.9599	0.659259	0.658888	0.590939	1	0.00581666	40	14.9461	0.000389363
2	1	0	1	0	16.1093	0.63627	0.6358	0.572301	1	0.00648498	40	16.0955	0.000363869
2	1	0	1	0	17.2588	0.613281	0.613001	0.549488	1	0.00712954	40	17.245	0.000336837
2	1	0	1	0	18.4082	0.590292	0.589908	0.520965	1	0.00774432	40	18.3944	0.000307321
2	1	0	1	0	19.5577	0.567303	0.566894	0.481857	1	0.00832085	40	19.5439	0.000273162
2	1	0	1	0	20.7071	0.544314	0.543855	0.430637	1	0.00884626	40	20.6933	0.000234204
2	1	0	1	0	21.8566	0.521325	0.521166	0.361619	1	0.00930258	40	21.8428	0.000188464
2	1	0	1	0	23.006	0.498336	0.497961	0.273205	1	0.00966845	40	22.9922	0.000136045
2	1	0	1	0	24.1555	0.475347	0.475188	0.168036	1	0.00992248	40	24.1417	7.98485e-05
2	1	0	1	0	25.305	0.452356	0.452084	0.0557041	1	0.01005	40	25.2912	2.51829e-05
2	0	0	1	0	26.4844	0.428769	0.428142	-0.0512816	1	0.0100505	41	0.5747	-2.19558e-05
2	0	0	1	0	27.6638	0.40518	0.404879	-0.136311	1	0.00993704	40	1.7541	-5.51894e-05
2	0	0	1	0	28.8133	0.382191	0.381882	-0.199224	1	0.00974093	40	2.9036	-7.60801e-05
2	0	0	1	0	29.9627	0.359202	0.358855	-0.24521	1	0.00948246	40	4.053	-8.7995e-05
2	0	0	1	0	31.1122	0.336213	0.335803	-0.279267	1	0.00917835	40	5.2025	-9.37787e-05
2	0	0	1	0	32.2616	0.313224	0.312843	-0.303183	1	0.00884152	40	6.3519	-9.48485e-05
2	0	0	1	0	33.4111	0.290235	0.289988	-0.320914	1	0.00848066	40	7.5014	-9.30613e-05
2	0	0	1	0	34.5606	0.267245	0.266888	-0.335463	1	0.00810087	40	8.6509	-8.95308e-05
2	0	0	1	0	35.71	0.244256	0.244121	-0.349253	1	0.00770533	40	9.8003	-8.526e-05
2	0	0	1	0	36.8595	0.221267	0.220986	-0.360753	1	0.00729631	40	10.9498	-7.97215e-05
2	0	0	1	0	38.0089	0.198278	0.197841	-0.368712	1	0.00687556	40	12.0992	-7.29464e-05
2	0	0	1	0	39.1584	0.175289	0.174871	-0.37958	1	0.00644401	40	13.2487	-6.63774e-05
2	0	0	1	0	40.3078	0.1523	0.151956	-0.385359	1	0.00600364	40	14.3981	-5.85574e-05
2	0	0	1	0	41.4573	0.129311	0.129124	-0.390312	1	0.00555645	40	15.5476	-5.03987e-05
2	0	0	1	0	42.6067	0.106322	0.106058	-0.394817	1	0.00510398	40	16.697	-4.18735e-05
2	0	0	1	0	43.7562	0.0833329	0.0829786	-0.397264	1	0.00464715	40	17.8465	-3.29644e-05
2	0	0	1	0	44.9056	0.0603438	0.0599895	-0.400311	1	0.00418729	40	18.9959	-2.40144e-05
2	0	0	1	0	46.0551	0.0373548	0.0373099	-0.403107	1	0.00372451	40	20.1454	-1.50399e-05
2	0	0	1	0	47.2046	0.0143639	0.0140595	-0.405469	1	0.00326017	40	21.2949	-5.70072e-06
2	0	0	1	1	48.3119	0.00776883	0.00756299	-0.405661	1	0.00281124	40	22.4022	-3.06801e-06
2	0	0	1	1	49.4614	0.0307579	0.0306177	-0.400765	1	0.00234875	40	23.5517	-1.22705e-05
2	0	0	1	1	50.6108	0.053747	0.0535035	-0.397086	1	0.00189081	40	24.7011	-2.12455e-05
2	0	0	1	1	51.7603	0.0767361	0.076279	-0.392674	1	0.00143768	40	25.8506	-2.99528e-05
2	0	0	1	1	52.9097	0.0997251	0.099378	-0.38599	1	0.00099085	40	27	-3.83589e-05
2	0	0	1	1	54.0592	0.122714	0.122446	-0.379619	1	0.000550979	40	28.1495	-4.64827e-05
2	0	0	1	1	55.2086	0.145703	0.145522	-0.372345	1	0.000119428	40	29.2989	-5.41845e-05
2	0	0	1	1	56.3581	0.168692	0.168432	-0.361773	1	-0.000301066	40	30.4484	-6.09342e-05
2	0	0	1	1	57.5075	0.191681	0.191456	-0.349607	1	-0.00070944	40	31.5978	-6.69342e-05
2	0	0	1	1	58.657	0.21467	0.214463	-0.337251	1	-0.00110352	40	32.7473	-7.23277e-05
2	0	0	1	1	59.8064	0.237659	0.237393	-0.322622	1	-0.00148154	40	33.8967	-7.65881e-05
2	0	0	1	1	60.9559	0.260649	0.26027	-0.306348	1	-0.00184219	40	35.0462	-7.9733e-05
2	0	0	1	1	62.1054	0.283638	0.283233	-0.291802	1	-0.00218446	40	36.1957	-8.26478e-05
2	0	0	1	1	63.2548	0.306627	0.306304	-0.27971	1	-0.00251142	40	37.3451	-8.56762e-05
2	0	0	1	1	64.4043	0.329616	0.329201	-0.264462	1	-0.00282352	40	38.4946	-8.7061e-05
2	0	0	1	1	65.5537	0.352605	0.352254	-0.239869	1	-0.00311325	40	39.644	-8.44949e-05
2	0	0	1	1	66.7032	0.375594	0.375149	-0.198553	1	-0.00336543	40	40.7935	-7.4487e-05
2	0	0	1	1	67.8526	0.398583	0.398022	-0.140525	1	-0.00356043	40	41.9429	-5.59322e-05
2	0	0	1	1	69.0021	0.421572	0.421179	-0.0668325	1	-0.00368006	40	43.0924	-2.81485e-05
2	1	0	1	1	70.1565	0.444661	0.444726	0.0232576	2	-0.00370601	41	0.2511	1.03433e-05
2	1	0	1	1	71.336	0.46825	0.467867	0.122814	2	-0.00361985	40	1.4306	5.74605e-05
2	1	0	1	1	72.4854	0.491239	0.490742	0.217721	2	-0.0034224	40	2.58	0.000106845
2	1	0	1	1	73.6349	0.514228	0.513917	0.300457	2	-0.00312232	40	3.7295	0.00015441
2	1	0	1	1	74.7843	0.537217	0.537021	0.367753	2	-0.00273609	40	4.8789	0.000197491
2	1	0	1	1	75.9338	0.560206	0.559808	0.421527	2	-0.0022804	40	6.0284	0.000235974
2	1	0	1	1	77.0832	0.583195	0.582819	0.464457	2	-0.00176966	40	7.1778	0.000270695
2	1	0	1	1	78.2327	0.606184	0.605706	0.500596	2	-0.00121393	40	8.3273	0.000303214
2	1	0	1	1	79.3822	0.629175	0.628903	0.532877	2	-0.000619945	40	9.4768	0.000335128
2	1	0	1	1	80.5316	0.652163	0.651945	0.563679	2	9.89774e-06	40	10.6262	0.000367488
2	1	0	1	1	81.6811	0.675152	0.674837	0.592677	2	0.000673607	40	11.7757	0.000399961
2	1	0	1	1	82.8305	0.698141	0.697724	0.623905	2	0.00137235	40	12.9251	0.000435314
2	1	0	1	1	83.9382	0.679749	0.679383	0.614681	2	0.00205981	40	14.0328	0.000417604
2	1	0	1	1	85.0876	0.65676	0.656474	0.599049	2	0.00275781	40	15.1822	0.00039326
2	1	0	1	1	86.2371	0.633771	0.6334	0.580094	2	0.00343632	40	16.3317	0.000367431
2	1	0	1	1	87.3865	0.610782	0.610459	0.556685	2	0.00409003	40	17.4811	0.000339834
2	1	0	1	1	88.536	0.587793	0.587378	0.52863	2	0.00471492	40	18.6306	0.000310506
2	1	0	1	1	89.6854	0.564804	0.564478	0.488562	2	0.00529988	40	19.78	0.000275782
2	1	0	1	1	90.8349	0.541815	0.541229	0.435505	2	0.00583212	40	20.9295	0.000235708
2	1	0	1	1	91.9843	0.518826	0.51834	0.364875	2	0.00629343	40	22.0789	0.00018913
2	1	0	1	1	93.1338	0.495837	0.49561	0.272755	2	0.00666116	40	23.2284	0.00013518
2	1	0	1	1	94.2832	0.472848	0.472497	0.162769	2	0.00691205	40	24.3778	7.69077e-05
2	1	0	1	1	95.4327	0.449859	0.449321	0.046708	2	0.00703131	40	25.5273	2.09869e-05
2	0	0	1	1	96.6121	0.42627	0.425929	-0.0621068	2	0.00701984	41	0.6747	-2.64531e-05
2	0	0	1	1	97.7916	0.402681	0.402337	-0.146513	2	0.00689362	40	1.8542	-5.89477e-05
2	0	0	1	1	98.941	0.379692	0.37934	-0.20812	2	0.00668634	40	3.0036	-7.8948e-05
2	0	0	1	1	100.09	0.356703	0.356439	-0.252988	2	0.0064183	40	4.1531	-9.01747e-05
2	0	0	1	1	101.24	0.333714	0.333311	-0.283426	2	0.00610759	40	5.3025	-9.4469e-05
2	0	0	1	1	102.389	0.310725	0.310437	-0.305598	2	0.00576673	40	6.452	-9.48689e-05
2	0	0	1	1	103.539	0.287736	0.287377	-0.322391	2	0.00540386	40	7.6014	-9.26478e-05
2	0	0	1	1	104.688	0.264747	0.264442	-0.33588	2	0.00502379	40	8.7509	-8.88208e-05
2	0	0	1	1	105.838	0.241756	0.241501	-0.348662	2	0.00462895	40	9.9004	-8.42022e-05
2	0	0	1	1	106.987	0.218769	0.218545	-0.358854	2	0.00422167	40	11.0498	-7.8426e-05
2	0	0	1	1	108.137	0.195779	0.195567	-0.367207	2	0.00380203	40	12.1993	-7.18135e-05
2	0	0	1	1	109.286	0.17279	0.172506	-0.376177	2	0.0033725	40	13.3487	-6.48929e-05
2	0	0	1	1	110.436	0.149801	0.149585	-0.382669	2	0.00293466	40	14.4982	-5.72414e-05
2	0	0	1	1	111.585	0.126812	0.126236	-0.387508	2	0.00249084	40	15.6476	-4.89175e-05
2	0	0	1	1	112.734	0.103823	0.103677	-0.391794	2	0.00204164	40	16.7971	-4.06201e-05
2	0	0	1	1	113.884	0.0808341	0.0807818	-0.394533	2	0.00158822	40	17.9465	-3.18711e-05
2	0	0	1	1	115.033	0.057845	0.0575335	-0.397474	2	0.00113183	40	19.096	-2.28681e-05
2	0	0	1	1	116.183	0.034856	0.0346069	-0.399498	2	0.000672628	40	20.2454	-1.38254e-05
2	0	0	1	1	117.332	0.0118669	0.0115152	-0.401849	2	0.000211039	40	21.3949	-4.62736e-06
2	0	0	1	0	118.44	0.0102667	0.00987312	-0.400294	2	-0.000233949	40	22.5022	-3.95215e-06
2	0	0	1	0	119.589	0.0332567	0.0329586	-0.399256	2	-0.000692033	40	23.6517	-1.31589e-05
2	0	0	1	0	120.739	0.0562458	0.0559264	-0.394282	2	-0.0011461	40	24.8012	-2.20508e-05
2	0	0	1	0	121.888	0.0792349	0.078867	-0.389446	2	-0.00159575	40	25.9506	-3.07145e-05
2	0	0	1	0	123.037	0.102224	0.101893	-0.382924	2	-0.00203838	40	27.1001	-3.90173e-05
2	0	0	1	0	124.187	0.125213	0.124878	-0.375996	2	-0.00247406	40	28.2495	-4.69534e-05
2	0	0	1	0	125.336	0.148202	0.1481	-0.367758	2	-0.00290153	40	29.399	-5.44648e-05
2	0	0	1	0	126.486	0.171191	0.170849	-0.3577	2	-0.00331762	40	30.5484	-6.11127e-05
2	0	0	1	0	127.635	0.19418	0.193803	-0.345946	2	-0.00372113	40	31.6979	-6.70453e-05
2	0	0	1	0	128.785	0.217169	0.216909	-0.333608	2	-0.00411071	40	32.8473	-7.23624e-05
2	0	0	1	0	129.934	0.240158	0.239617	-0.318136	2	-0.00448414	40	33.9968	-7.62307e-05
2	0	0	1	0	131.084	0.263147	0.262722	-0.302449	2	-0.00484034	40	35.1462	-7.946e-05
2	0	0	1	0	132.233	0.286137	0.285952	-0.288247	2	-0.00517847	40	36.2957	-8.24249e-05
2	0	0	1	0	133.383	0.309126	0.308791	-0.277656	2	-0.0055023	40	37.4452	-8.57376e-05
2	0	0	1	0	134.532	0.332115	0.331734	-0.263591	2	-0.00581207	40	38.5946	-8.7442e-05
2	0	0	1	0	135.681	0.355104	0.354933	-0.238034	2	-0.00609946	40	39.7441	-8.44861e-05
2	0	0	1	0	136.831	0.378093	0.377687	-0.195433	2	-0.00634901	40	40.8935	-7.38126e-05
2	0	0	1	0	137.98	0.401082	0.400647	-0.135763	2	-0.00653991	40	42.043	-5.4393e-05
2	0	0	1	0	139.13	0.424071	0.423704	-0.0582905	2	-0.00665206	40	43.1924	-2.46979e-05
2	1	0	1	0	139.917	0.439839	0.439739	0.0050312	2	-0.00667323	41	0.0323	2.21241e-06