File: Python/Data/GoldElectrode/240313/240313-CVEIS_PostActivation-Fe2Fe3_5mM-HCl1M-0625RPM-Ag_AgCl_BLF8-Au_RDE_02_PEIS_C15.mpt
EC-Lab ASCII FILE
Nb header lines : 66

Potentio Electrochemical Impedance Spectroscopy

Run on channel : 15 (SN 19485)
User :
Electrode connection : standard
Potential control : Ewe
Ewe ctrl range : min = -1.00 V, max = 1.00 V
Ewe,I filtering : <None>
Safety Limits :
	Do not start on E overload
Channel : Floating
Acquisition started on : 03/13/2024 17:31:32.070
Loaded Setting File :  NONE
Saved on :
	File : 240313-CVEIS_PostActivation-Fe2Fe3_5mM-HCl1M-625RPM-Ag_AgCl_BLF8-Au_RDE_02_PEIS_C15.mpr
	Directory : C:\Data\mathias\GoldElectrode\
	Host : 192.168.0.1
Device : VMP-300 (SN 0826)
Address : USB
EC-Lab for windows v11.52 (software)
Internet server v11.52 (firmware)
Command interpretor v11.52 (firmware)
Electrode material :
Initial state :
Electrolyte :
Comments :
Cable : special
Electrode surface area : 0.001 cm²
Characteristic mass : 0.001 g
Equivalent Weight : 0.000 g/eq.
Density : 0.000 g/cm3
Volume (V) : 0.001 cm³
Record EIS quality indicators
Cycle Definition : Charge/Discharge alternance
Mode                Single sine
E (V)               0.0000
vs.                 Eoc
tE (h:m:s)          0:01:0.0000
record              0
dI                  0.000
unit dI             mA
dt (s)              0.000
fi                  400.000
unit fi             kHz
ff                  100.000
unit ff             mHz
Nd                  10
Points              per decade
spacing             Logarithmic
Va (mV)             5.0
pw                  0.10
Na                  3
corr                0
E range min (V)     -1.000
E range max (V)     1.000
I Range             Auto
Bandwidth           8
nc cycles           0
goto Ns'            0
nr cycles           0
inc. cycle          1

freq/Hz	Re(Z)/Ohm	-Im(Z)/Ohm	|Z|/Ohm	Phase(Z)/deg	time/s	<Ewe>/V	<I>/mA	Cs/µF	Cp/µF	cycle number	I Range	|Ewe|/V	|I|/A	Ns	(Q-Qo)/mA.h	THD Ewe/%	NSD Ewe/%	NSR Ewe/%	|Ewe h2|/V	|Ewe h3|/V	|Ewe h4|/V	|Ewe h5|/V	|Ewe h6|/V	|Ewe h7|/V	THD I/%	NSD I/%	NSR I/%	|I h2|/A	|I h3|/A	|I h4|/A	|I h5|/A	|I h6|/A	|I h7|/A	Re(Y)/Ohm-1	Im(Y)/Ohm-1	|Y|/Ohm-1	Phase(Y)/deg	Re(C)/nF	Im(C)/nF	|C|/nF	Phase(C)/deg	Re(M)	Im(M)	|M|	Phase(M)/deg	Re(Permittivity)	Im(Permittivity)	|Permittivity|	Phase(Permittivity)/deg	Re(Resistivity)/Ohm.cm	Im(Resistivity)/Ohm.cm	|Resistivity|/Ohm.cm	Phase(Resistivity)/deg	Re(Conductivity)/mS/cm	Im(Conductivity)/mS/cm	|Conductivity|/mS/cm	Phase(Conductivity)/deg	Tan(Delta)	Loss Angle(Delta)/deg	dq/mA.h
399996	3.239	1.38496	3.52267	-23.151	203.254	0.445983	-0.00725815	0.287295	0.0444075	1	38	0.00458293	0.00130098	0	5.68285e-07	-1	-1	-1	0	0	0	0	0	0	-1	-1	-1	0	0	0	0	0	0	0.261016	0.111607	0.283876	23.151	44.4075	103.856	112.952	-66.849	0.0000000E+000	0.0000000E+000	0.0000000E+000	66.849	0.0000000E+000	0.0000000E+000	0.0000000E+000	-66.849	0.0000000E+000	0.0000000E+000	0.0000000E+000	-23.151	0.0000000E+000	0.0000000E+000	0.0000000E+000	23.151	2.3387	66.849	5.68285e-07
126447	3.21633	0.344412	3.23472	-6.11206	209.429	0.445973	0.00440781	3.65454	0.04143	1	37	0.00520134	0.00160797	0	4.60612e-06	-1	-1	-1	0	0	0	0	0	0	-1	-1	-1	0	0	0	0	0	0	0.307389	0.0329158	0.309146	6.11206	41.43	386.899	389.111	-83.8879	0.0000000E+000	0.0000000E+000	0.0000000E+000	83.8879	0.0000000E+000	0.0000000E+000	0.0000000E+000	-83.8879	0.0000000E+000	0.0000000E+000	0.0000000E+000	-6.11206	0.0000000E+000	0.0000000E+000	0.0000000E+000	6.11206	9.33863	83.8879	2.56706e-06
39971.8	3.3962	0.540198	3.43889	-9.03774	215.169	0.445961	-0.0010453	7.37078	0.181879	1	37	0.00515743	0.00149974	0	3.69418e-06	1.00639	0.521748	19.742	1.95918e-05	1.403e-05	2.31579e-05	1.60792e-05	2.59409e-05	2.21644e-05	0.594127	0.378636	11.755	3.34817e-06	4.06113e-06	4.55859e-06	2.57715e-06	3.637e-06	2.16372e-06	0.287181	0.045679	0.290791	9.03774	181.879	1143.46	1157.84	-80.9623	0.0000000E+000	0.0000000E+000	0.0000000E+000	80.9623	0.0000000E+000	0.0000000E+000	0.0000000E+000	-80.9623	0.0000000E+000	0.0000000E+000	0.0000000E+000	-9.03774	0.0000000E+000	0.0000000E+000	0.0000000E+000	9.03774	6.28695	80.9623	-2.32042e-06
12637.3	3.62121	1.09885	3.78426	-16.8804	220.91	0.445962	-0.00599589	11.4611	0.966367	1	37	0.00515261	0.00136159	0	5.37634e-06	1.19	0.623303	19.8317	3.44169e-05	2.39362e-05	2.28624e-05	1.7212e-05	1.53768e-05	2.52704e-05	0.711305	0.508104	12.9676	4.01782e-06	4.95449e-06	1.94079e-06	2.50012e-06	3.49031e-06	4.58938e-06	0.252866	0.0767321	0.264252	16.8804	966.366	3184.61	3328	-73.1196	0.0000000E+000	0.0000000E+000	0.0000000E+000	73.1196	0.0000000E+000	0.0000000E+000	0.0000000E+000	-73.1196	0.0000000E+000	0.0000000E+000	0.0000000E+000	-16.8804	0.0000000E+000	0.0000000E+000	0.0000000E+000	16.8804	3.29544	73.1196	6.69832e-07
3993.72	4.04961	2.73362	4.8859	-34.0206	226.953	0.445827	-0.000380119	14.5782	4.56343	1	38	0.00506979	0.00103764	0	6.91612e-06	0.827129	0.599382	19.4502	1.5607e-05	9.3754e-06	1.09648e-05	1.78409e-05	1.69026e-05	2.20336e-05	0.210411	0.10815	2.83995	1.32937e-06	6.35066e-07	3.58631e-07	1.13744e-06	6.19198e-07	7.82459e-07	0.169638	0.114512	0.204671	34.0206	4563.43	6760.31	8156.39	-55.9794	0.0000000E+000	0.0000000E+000	0.0000000E+000	55.9794	0.0000000E+000	0.0000000E+000	0.0000000E+000	-55.9794	0.0000000E+000	0.0000000E+000	0.0000000E+000	-34.0206	0.0000000E+000	0.0000000E+000	0.0000000E+000	34.0206	1.48141	55.9794	2.26478e-06
1262.98	5.30637	7.43046	9.13068	-54.4679	232.48	0.445886	-0.000657557	16.9593	11.2314	1	38	0.00488234	0.000534717	0	4.95137e-06	1.03716	0.637105	19.8742	2.16236e-05	1.32537e-05	1.93284e-05	2.23146e-05	2.03485e-05	1.59627e-05	0.487694	0.10386	5.45762	1.90684e-06	1.10683e-06	8.08118e-07	5.99998e-07	4.34934e-07	6.25808e-07	0.063649	0.089127	0.109521	54.4679	11231.4	8020.76	13801.3	-35.5321	0.0000000E+000	0.0000000E+000	0.0000000E+000	35.5321	0.0000000E+000	0.0000000E+000	0.0000000E+000	-35.5321	0.0000000E+000	0.0000000E+000	0.0000000E+000	-54.4679	0.0000000E+000	0.0000000E+000	0.0000000E+000	54.4679	0.714138	35.5321	2.52858e-07
399.106	10.8597	19.2412	22.0942	-60.5597	238.017	0.445912	0.00185046	20.7253	15.7183	1	38	0.00461941	0.000209078	0	6.10298e-06	1.32817	0.949493	21.411	3.92454e-05	1.31908e-05	1.70449e-05	2.68717e-05	1.60867e-05	2.17792e-05	1.18939	0.579595	14.2102	1.91528e-06	5.48029e-07	5.48856e-07	7.48063e-07	6.88327e-07	5.72614e-07	0.0222464	0.0394161	0.0452607	60.5597	15718.3	8871.39	18049	-29.4403	0.0000000E+000	0.0000000E+000	0.0000000E+000	29.4403	0.0000000E+000	0.0000000E+000	0.0000000E+000	-29.4403	0.0000000E+000	0.0000000E+000	0.0000000E+000	-60.5597	0.0000000E+000	0.0000000E+000	0.0000000E+000	60.5597	0.564399	29.4403	4.1749e-07
126.171	32.2754	38.5281	50.2605	-50.0467	243.791	0.445898	0.00112924	32.7403	19.2391	1	39	0.00462614	9.20433e-05	0	8.28885e-06	1.0464	0.792006	22.3894	2.03321e-05	2.09813e-05	2.18595e-05	1.86568e-05	1.51692e-05	1.48164e-05	0.771005	0.343758	13.8331	4.41115e-07	3.3483e-07	2.33743e-07	2.35603e-07	1.38329e-07	1.4985e-07	0.0127767	0.0152519	0.0198964	50.0467	19239.1	16116.8	25097.7	-39.9533	0.0000000E+000	0.0000000E+000	0.0000000E+000	39.9533	0.0000000E+000	0.0000000E+000	0.0000000E+000	-39.9533	0.0000000E+000	0.0000000E+000	0.0000000E+000	-50.0467	0.0000000E+000	0.0000000E+000	0.0000000E+000	50.0467	0.837712	39.9533	2.4343e-07
39.8851	71.229	46.2715	84.939	-33.0084	249.194	0.44588	0.0014787	86.2373	25.5923	1	39	0.00459661	5.41167e-05	0	9.86456e-06	1.3489	0.677371	22.8803	2.44708e-05	1.8652e-05	1.92238e-05	3.12843e-05	2.34293e-05	1.9943e-05	1.33395	0.70771	23.1987	4.66224e-07	2.90541e-07	9.35321e-08	3.27149e-07	1.40867e-07	2.25148e-07	0.00987286	0.00641357	0.0117732	33.0084	25592.3	39396	46978.8	-56.9916	0.0000000E+000	0.0000000E+000	0.0000000E+000	56.9916	0.0000000E+000	0.0000000E+000	0.0000000E+000	-56.9916	0.0000000E+000	0.0000000E+000	0.0000000E+000	-33.0084	0.0000000E+000	0.0000000E+000	0.0000000E+000	33.0084	1.53937	56.9916	3.0022e-07
12.6144	104.908	43.4376	113.546	-22.4921	254.579	0.445913	0.00115114	290.462	42.509	1	39	0.00459452	4.04642e-05	0	1.13816e-05	0.929958	0.662374	16.3864	1.69322e-05	1.1695e-05	1.83864e-05	2.04046e-05	1.64645e-05	1.47875e-05	1.50081	1.11308	22.6542	2.51952e-07	1.87752e-07	2.54528e-07	2.49053e-07	2.23362e-07	2.24571e-07	0.00813711	0.00336919	0.00880704	22.4921	42509	102666	111118	-67.5079	0.0000000E+000	0.0000000E+000	0.0000000E+000	67.5079	0.0000000E+000	0.0000000E+000	0.0000000E+000	-67.5079	0.0000000E+000	0.0000000E+000	0.0000000E+000	-22.4921	0.0000000E+000	0.0000000E+000	0.0000000E+000	22.4921	2.41515	67.5079	2.99073e-07
3.98597	133.717	46.7288	141.647	-19.2625	262.068	0.445887	0.00129078	854.478	92.9945	1	40	0.00459132	3.24139e-05	0	1.35564e-05	1.45509	0.678042	21.5234	2.209e-05	2.08412e-05	1.69969e-05	2.5208e-05	2.79767e-05	3.34365e-05	0.408163	0.26378	3.99446	7.70156e-08	5.47287e-08	3.49633e-08	4.7077e-08	2.30685e-08	3.68115e-08	0.00666458	0.00232901	0.00705981	19.2625	92994.5	266109	281890	-70.7375	0.0000000E+000	0.0000000E+000	0.0000000E+000	70.7375	0.0000000E+000	0.0000000E+000	0.0000000E+000	-70.7375	0.0000000E+000	0.0000000E+000	0.0000000E+000	-19.2625	0.0000000E+000	0.0000000E+000	0.0000000E+000	19.2625	2.86155	70.7375	7.87252e-08
1.25968	173.1	63.8662	184.506	-20.2518	280.011	0.445905	0.00152403	1978.29	237.034	1	40	0.00459442	2.49012e-05	0	2.19503e-05	0.579902	0.30464	10.9171	8.86852e-06	7.98047e-06	1.69364e-05	8.6731e-06	8.38003e-06	7.56465e-06	0.609355	0.284663	2.81581	1.38364e-07	3.2322e-08	2.0307e-08	3.53949e-08	2.21522e-08	1.69424e-08	0.00508483	0.00187608	0.00541988	20.2518	237034	642446	684779	-69.7482	0.0000000E+000	0.0000000E+000	0.0000000E+000	69.7482	0.0000000E+000	0.0000000E+000	0.0000000E+000	-69.7482	0.0000000E+000	0.0000000E+000	0.0000000E+000	-20.2518	0.0000000E+000	0.0000000E+000	0.0000000E+000	20.2518	2.71035	69.7482	3.72374e-06
0.398211	245.478	61.7843	253.134	-14.1273	334.658	0.445896	0.00214339	6468.88	385.375	1	41	0.00459335	1.81459e-05	0	4.835e-05	0.512404	0.204195	8.22854	8.93987e-06	6.09954e-06	8.90498e-06	9.21635e-06	9.69476e-06	1.12825e-05	0.59354	0.262525	0.666645	1.04881e-07	8.89135e-09	1.27928e-08	1.36108e-08	8.32736e-09	6.58945e-09	0.003831	0.000964222	0.00395048	14.1273	385375	1.53115e+06	1.57891e+06	-75.8727	0.0000000E+000	0.0000000E+000	0.0000000E+000	75.8727	0.0000000E+000	0.0000000E+000	0.0000000E+000	-75.8727	0.0000000E+000	0.0000000E+000	0.0000000E+000	-14.1273	0.0000000E+000	0.0000000E+000	0.0000000E+000	14.1273	3.97315	75.8727	9.66753e-06
0.125939	288.856	26.4839	290.068	-5.23854	497.463	0.445912	0.00379294	47717.6	397.781	1	41	0.00459653	1.58464e-05	0	0.000180894	0.3137	0.148696	4.43706	5.58825e-06	8.94285e-06	3.45792e-06	2.67273e-06	3.6525e-06	6.36841e-06	0.618516	0.258347	0.528113	9.42331e-08	1.61114e-08	6.57549e-09	1.7651e-08	3.97425e-09	4.30455e-09	0.00343307	0.000314763	0.00344747	5.23854	397781	4.33854e+06	4.35674e+06	-84.7615	0.0000000E+000	0.0000000E+000	0.0000000E+000	84.7615	0.0000000E+000	0.0000000E+000	0.0000000E+000	-84.7615	0.0000000E+000	0.0000000E+000	0.0000000E+000	-5.23854	0.0000000E+000	0.0000000E+000	0.0000000E+000	5.23854	10.9069	84.7615	4.75255e-05
0.0999518	293.673	21.4495	294.455	-4.1774	558.866	0.445908	0.00432845	74235.6	393.921	1	41	0.00459103	1.55916e-05	0	0.00025424	0.232917	0.136088	4.58587	2.62287e-06	3.52412e-06	2.99543e-06	6.73195e-06	3.78215e-06	3.84331e-06	0.51907	0.363392	0.48029	7.88243e-08	1.00717e-08	3.47622e-09	1.00835e-08	6.19744e-09	4.83641e-09	0.00338708	0.000247388	0.0033961	4.1774	393921	5.39331e+06	5.40767e+06	-85.8226	0.0000000E+000	0.0000000E+000	0.0000000E+000	85.8226	0.0000000E+000	0.0000000E+000	0.0000000E+000	-85.8226	0.0000000E+000	0.0000000E+000	0.0000000E+000	-4.1774	0.0000000E+000	0.0000000E+000	0.0000000E+000	4.1774	13.6913	85.8226	7.33459e-05